EEG 1,EEG 2,EEG 3,EEG 4,EEG 5,EEG 6,EEG 7,EEG 8,Accelerometer X,Accelerometer Y,Accelerometer Z,Gyroscope X,Gyroscope Y,Gyroscope Z,Battery Level,Counter,Validation Indicator,State
611055.625,371364.0625,750000.0625,639887.9375,-299134.75,711403.25,362040.875,551557.375,0.1435546875,0.952880859375,-0.135009765625,0.0,0.0,0.0,66.66667175292969,1.0,1.0,WarmUp
494188.15625,178301.9375,750000.0625,750000.0625,-316810.96875,750000.0625,424260.8125,434816.8125,0.140380859375,0.96435546875,-0.146240234375,0.0,0.0,0.0,66.66667175292969,2.0,1.0,WarmUp
485351.0,373762.9375,750000.0625,750000.0625,-245101.546875,750000.0625,254326.03125,200818.28125,0.140625,0.971435546875,-0.1484375,0.0,0.0,0.0,66.66667175292969,3.0,1.0,WarmUp
443321.9375,544428.1875,714693.1875,750000.0625,-161324.265625,612502.625,103276.5078125,83417.0703125,0.14306640625,0.976318359375,-0.151611328125,0.0,0.0,0.0,66.66667175292969,4.0,1.0,WarmUp
315634.8125,605401.125,750000.0625,699845.5625,-29992.466796875,440948.96875,193233.609375,111139.40625,0.146240234375,0.97900390625,-0.154052734375,0.0,0.0,0.0,66.66667175292969,5.0,1.0,WarmUp
319034.5,677327.0625,750000.0625,747434.875,139077.75,574874.0,412426.1875,460487.4375,0.14453125,0.980712890625,-0.149169921875,-0.03051757626235485,-0.03051757626235485,-0.03051757626235485,66.66667175292969,6.0,1.0,WarmUp
494153.8125,750000.0625,750000.0625,750000.0625,288631.03125,735609.8125,404133.25,534023.8125,0.143798828125,0.98046875,-0.152099609375,-5.432128429412842,-3.387450933456421,-5.432128429412842,66.66667175292969,7.0,1.0,WarmUp
553258.125,750000.0625,750000.0625,750000.0625,359434.75,750000.0625,479847.09375,528343.3125,0.142822265625,0.97705078125,-0.150634765625,-2.349853277206421,-0.3356933295726776,-1.3732908964157104,66.66667175292969,8.0,1.0,WarmUp
562074.25,750000.0625,750000.0625,750000.0625,524534.5625,728776.0625,750000.0625,638117.6875,0.142333984375,0.973388671875,-0.152587890625,-1.6784666776657104,0.6408690810203552,-0.3967284858226776,66.66667175292969,9.0,1.0,WarmUp
591149.0625,750000.0625,750000.0625,750000.0625,750000.0625,659982.75,750000.0625,653087.6875,0.14208984375,0.97216796875,-0.152099609375,-1.4038084745407104,0.9765624403953552,-0.1220703050494194,66.66667175292969,10.0,1.0,WarmUp
704424.75,750000.0625,750000.0625,750000.0625,750000.0625,640934.3125,750000.0625,750000.0625,0.142333984375,0.9697265625,-0.15234375,-1.4038084745407104,1.2512205839157104,-0.1525878757238388,66.66667175292969,11.0,1.0,WarmUp
750000.0625,750000.0625,750000.0625,750000.0625,750000.0625,666747.0,750000.0625,750000.0625,0.142822265625,0.970703125,-0.154052734375,-1.2512205839157104,1.4343260526657104,-0.2136230319738388,66.66667175292969,12.0,1.0,WarmUp
750000.0625,750000.0625,750000.0625,750000.0625,750000.0625,750000.0625,750000.0625,750000.0625,0.14111328125,0.970458984375,-0.150634765625,-1.0375975370407104,1.4343260526657104,-0.2441406100988388,66.66667175292969,13.0,1.0,WarmUp
750000.0625,750000.0625,750000.0625,750000.0625,750000.0625,750000.0625,750000.0625,750000.0625,0.1396484375,0.971923828125,-0.150390625,-0.9765624403953552,1.4343260526657104,-0.3967284858226776,66.66667175292969,14.0,1.0,WarmUp
750000.0625,750000.0625,750000.0625,750000.0625,750000.0625,750000.0625,750000.0625,750000.0625,0.13818359375,0.97216796875,-0.14990234375,-0.8544921278953552,1.3732908964157104,-0.5493163466453552,66.66667175292969,15.0,1.0,WarmUp
750000.0625,750000.0625,750000.0625,750000.0625,750000.0625,750000.0625,750000.0625,750000.0625,0.138427734375,0.97265625,-0.149169921875,-0.8239745497703552,1.3732908964157104,-0.7324218153953552,66.66667175292969,16.0,1.0,WarmUp
750000.0625,750000.0625,750000.0625,750000.0625,750000.0625,750000.0625,750000.0625,750000.0625,0.13720703125,0.971923828125,-0.144287109375,-0.7629393935203552,1.2207030057907104,-0.9155272841453552,66.66667175292969,17.0,1.0,WarmUp
750000.0625,750000.0625,750000.0625,750000.0625,750000.0625,750000.0625,750000.0625,750000.0625,0.135498046875,0.9716796875,-0.144775390625,-0.7324218153953552,1.1596678495407104,-1.1596678495407104,66.66667175292969,18.0,1.0,WarmUp
750000.0625,750000.0625,750000.0625,750000.0625,750000.0625,750000.0625,750000.0625,750000.0625,0.13427734375,0.968505859375,-0.146484375,-0.6103515028953552,1.1291502714157104,-1.4343260526657104,66.66667175292969,19.0,1.0,WarmUp
727507.3125,750000.0625,750000.0625,750000.0625,750000.0625,750000.0625,750000.0625,750000.0625,0.13232421875,0.967041015625,-0.14453125,-0.5493163466453552,1.0070799589157104,-1.6174315214157104,66.66667175292969,20.0,1.0,WarmUp
702846.375,750000.0625,750000.0625,750000.0625,750000.0625,750000.0625,750000.0625,750000.0625,0.13232421875,0.968017578125,-0.14306640625,-0.3051757514476776,0.8850097060203552,-1.8310545682907104,66.66667175292969,21.0,1.0,WarmUp
680719.9375,750000.0625,750000.0625,750000.0625,750000.0625,750000.0625,750000.0625,750000.0625,0.1337890625,0.96630859375,-0.143310546875,0.0,0.7934569716453552,-1.9226073026657104,66.66667175292969,22.0,1.0,WarmUp
659153.3125,750000.0625,750000.0625,750000.0625,750000.0625,749288.0,750000.0625,750000.0625,0.132568359375,0.964599609375,-0.143310546875,0.1220703050494194,0.6408690810203552,-2.105712652206421,66.66667175292969,23.0,1.0,WarmUp
638357.875,750000.0625,750000.0625,750000.0625,750000.0625,724821.0,750000.0625,750000.0625,0.130859375,0.9677734375,-0.1435546875,0.3662109076976776,0.5493163466453552,-2.044677495956421,66.66667175292969,24.0,1.0,WarmUp
620004.5,750000.0625,750000.0625,750000.0625,750000.0625,702736.625,750000.0625,750000.0625,0.130126953125,0.96875,-0.142578125,0.5187987685203552,0.3662109076976776,-2.075195074081421,66.66667175292969,25.0,1.0,WarmUp
604599.3125,750000.0625,750000.0625,750000.0625,750000.0625,683085.5,750000.0625,750000.0625,0.127197265625,0.971435546875,-0.143310546875,0.8544921278953552,0.2441406100988388,-2.349853277206421,66.66667175292969,26.0,1.0,WarmUp
590596.0625,750000.0625,750000.0625,750000.0625,750000.0625,665064.1875,730460.4375,750000.0625,0.12646484375,0.9755859375,-0.14453125,1.0375975370407104,0.0915527269244194,-2.380370855331421,66.66667175292969,27.0,1.0,WarmUp
576353.25,750000.0625,750000.0625,750000.0625,750000.0625,647839.125,708609.1875,750000.0625,0.124755859375,0.973876953125,-0.146240234375,1.3427733182907104,-0.1220703050494194,-2.502441167831421,66.66667175292969,28.0,1.0,WarmUp
562180.0,750000.0625,750000.0625,750000.0625,750000.0625,631443.8125,687535.75,750000.0625,0.124755859375,0.97314453125,-0.145263671875,1.4953612089157104,-0.1831054538488388,-2.471923589706421,66.66667175292969,29.0,1.0,WarmUp
549664.5,750000.0625,750000.0625,750000.0625,750000.0625,616527.5625,668405.625,750000.0625,0.125,0.970947265625,-0.146240234375,1.5563963651657104,-0.2746581733226776,-2.441406011581421,66.66667175292969,30.0,1.0,WarmUp
539377.1875,750000.0625,750000.0625,750000.0625,750000.0625,603269.6875,651719.9375,750000.0625,0.125732421875,0.966552734375,-0.14697265625,1.7089842557907104,-0.3662109076976776,-2.502441167831421,66.66667175292969,31.0,1.0,WarmUp
529959.4375,750000.0625,750000.0625,750000.0625,750000.0625,590984.6875,636449.0625,750000.0625,0.126953125,0.958984375,-0.146728515625,1.8920897245407104,-0.4882812201976776,-2.410888433456421,66.66667175292969,32.0,1.0,WarmUp
519991.53125,750000.0625,750000.0625,750000.0625,750000.0625,578987.8125,621358.6875,750000.0625,0.1279296875,0.953369140625,-0.151611328125,2.197265386581421,-0.5493163466453552,-2.288818120956421,66.66667175292969,33.0,1.0,WarmUp
509799.5,750000.0625,750000.0625,750000.0625,750000.0625,567395.6875,606497.875,750000.0625,0.129150390625,0.948974609375,-0.15283203125,2.593993902206421,-0.5798339247703552,-2.197265386581421,66.66667175292969,34.0,1.0,WarmUp
500852.8125,750000.0625,750000.0625,750000.0625,750000.0625,556822.8125,592977.75,750000.0625,0.130126953125,0.9443359375,-0.15576171875,3.112792730331421,-0.6103515028953552,-2.197265386581421,66.66667175292969,35.0,1.0,WarmUp
493692.21875,750000.0625,750000.0625,750000.0625,750000.0625,547462.1875,581303.75,750000.0625,0.1279296875,0.944580078125,-0.15771484375,3.753661870956421,-0.6408690810203552,-2.044677495956421,66.66667175292969,36.0,1.0,WarmUp
487114.625,750000.0625,750000.0625,750000.0625,750000.0625,538719.6875,570578.9375,750000.0625,0.13134765625,0.947265625,-0.1572265625,4.333495616912842,-0.5187987685203552,-2.075195074081421,66.66667175292969,37.0,1.0,WarmUp
479876.25,750000.0625,750000.0625,750000.0625,750000.0625,530057.1875,559766.9375,750000.0625,0.132568359375,0.9482421875,-0.15576171875,4.943847179412842,-0.5798339247703552,-1.9836424589157104,66.66667175292969,38.0,1.0,WarmUp
472214.34375,750000.0625,750000.0625,750000.0625,750000.0625,521518.625,548857.6875,750000.0625,0.1318359375,0.952392578125,-0.15625,5.218505382537842,-0.4272460639476776,-1.6784666776657104,66.66667175292969,39.0,1.0,WarmUp
465563.0625,750000.0625,750000.0625,750000.0625,750000.0625,513753.71875,538942.5,750000.0625,0.131591796875,0.95703125,-0.154541015625,5.432128429412842,-0.3662109076976776,-1.5563963651657104,66.66667175292969,40.0,1.0,WarmUp
460455.25,750000.0625,750000.0625,750000.0625,750000.0625,506952.4375,530522.375,750000.0625,0.130615234375,0.9599609375,-0.156982421875,5.615233898162842,-0.3662109076976776,-1.2207030057907104,66.66667175292969,41.0,1.0,WarmUp
455793.5625,750000.0625,750000.0625,750000.0625,750000.0625,500589.59375,522810.46875,750000.0625,0.13037109375,0.960205078125,-0.156982421875,5.645751476287842,-0.2441406100988388,-0.9155272841453552,66.66667175292969,42.0,1.0,WarmUp
450358.875,750000.0625,750000.0625,750000.0625,750000.0625,494112.0625,514784.3125,750000.0625,0.12841796875,0.96142578125,-0.154052734375,5.615233898162842,-0.2136230319738388,-0.7019042372703552,66.66667175292969,43.0,1.0,WarmUp
444438.1875,750000.0625,750000.0625,750000.0625,750000.0625,487657.6875,506534.8125,750000.0625,0.12841796875,0.95703125,-0.15478515625,5.645751476287842,-0.0915527269244194,-0.5493163466453552,66.66667175292969,44.0,1.0,WarmUp
439356.28125,750000.0625,750000.0625,750000.0625,750000.0625,481801.1875,499056.4375,750000.0625,0.12939453125,0.95458984375,-0.156494140625,5.737304210662842,0.0610351525247097,-0.2746581733226776,66.66667175292969,45.0,1.0,WarmUp
435623.28125,750000.0625,750000.0625,750000.0625,750000.0625,476730.8125,492829.0,750000.0625,0.12646484375,0.954345703125,-0.1591796875,5.798339366912842,0.0610351525247097,-0.1831054538488388,66.66667175292969,46.0,1.0,WarmUp
432251.28125,750000.0625,750000.0625,750000.0625,750000.0625,471990.90625,487155.75,744692.5,0.12451171875,0.95361328125,-0.16064453125,5.950927257537842,0.0610351525247097,-0.2136230319738388,66.66667175292969,47.0,1.0,WarmUp
428081.34375,750000.0625,750000.0625,750000.0625,750000.0625,467057.96875,481075.1875,733466.625,0.12548828125,0.955078125,-0.158935546875,6.011962413787842,0.0915527269244194,0.0,66.66667175292969,48.0,1.0,WarmUp
423365.84375,750000.0625,750000.0625,750000.0625,750000.0625,462043.75,474656.40625,722328.0625,0.12646484375,0.953857421875,-0.1572265625,6.134032726287842,0.03051757626235485,0.1831054538488388,66.66667175292969,49.0,1.0,WarmUp
419393.3125,750000.0625,750000.0625,750000.0625,750000.0625,457520.28125,468862.90625,711823.5,0.128173828125,0.950439453125,-0.158203125,6.134032726287842,-0.0915527269244194,0.1831054538488388,66.66667175292969,50.0,1.0,WarmUp
416659.59375,750000.0625,750000.0625,750000.0625,750000.0625,453680.625,464179.40625,702267.375,0.1279296875,0.951171875,-0.15869140625,6.042479991912842,-0.0915527269244194,0.3967284858226776,66.66667175292969,51.0,1.0,WarmUp
414225.3125,750000.0625,750000.0625,750000.0625,750000.0625,450103.625,459953.59375,693319.125,0.127197265625,0.947265625,-0.164306640625,5.950927257537842,-0.0610351525247097,0.4272460639476776,66.66667175292969,52.0,1.0,WarmUp
410976.71875,750000.0625,750000.0625,750000.0625,750000.0625,446281.84375,455257.125,684378.8125,0.127197265625,0.945068359375,-0.167236328125,5.767821788787842,-0.0915527269244194,0.5493163466453552,66.66667175292969,53.0,1.0,WarmUp
407159.5,750000.0625,750000.0625,750000.0625,750000.0625,442322.09375,450160.5,675408.625,0.12548828125,0.944091796875,-0.169921875,5.737304210662842,-0.1831054538488388,0.6408690810203552,66.66667175292969,54.0,1.0,WarmUp
403990.71875,741673.375,750000.0625,750000.0625,750000.0625,438764.125,445580.71875,666919.3125,0.12255859375,0.94091796875,-0.1748046875,5.859374523162842,-0.1525878757238388,0.5798339247703552,66.66667175292969,55.0,1.0,WarmUp
401987.28125,733622.1875,750000.0625,750000.0625,750000.0625,435823.625,442013.0,659249.0,0.12060546875,0.938720703125,-0.174560546875,5.889892101287842,-0.3356933295726776,0.3662109076976776,66.66667175292969,56.0,1.0,WarmUp
400238.5,726211.25,750000.0625,750000.0625,750000.0625,433095.75,438834.15625,652079.625,0.117431640625,0.9345703125,-0.17529296875,5.981444835662842,-0.3051757514476776,0.1525878757238388,66.66667175292969,57.0,1.0,WarmUp
397678.0625,718522.625,750000.0625,750000.0625,750000.0625,430083.25,435154.875,644842.0625,0.113525390625,0.93310546875,-0.176513671875,6.072997570037842,-0.5798339247703552,-0.03051757626235485,66.66667175292969,58.0,1.0,WarmUp
394518.84375,710466.25,750000.0625,750000.0625,750000.0625,426894.28125,431022.3125,637483.0625,0.116455078125,0.93359375,-0.174560546875,6.195067882537842,-0.7324218153953552,-0.3356933295726776,66.66667175292969,59.0,1.0,WarmUp
391968.0625,702927.5,750000.0625,750000.0625,750000.0625,424071.71875,427356.0,630527.625,0.115478515625,0.9326171875,-0.179931640625,6.134032726287842,-0.9155272841453552,-0.6713866591453552,66.66667175292969,60.0,1.0,WarmUp
390511.375,696454.75,750000.0625,750000.0625,750000.0625,421809.4375,424629.34375,624299.125,0.11669921875,0.932373046875,-0.184814453125,6.195067882537842,-1.0986326932907104,-0.9155272841453552,66.66667175292969,61.0,1.0,WarmUp
389277.03125,690529.5625,750000.0625,750000.0625,750000.0625,419709.625,422229.21875,618479.0625,0.1171875,0.93359375,-0.184814453125,6.134032726287842,-1.1291502714157104,-1.0681151151657104,66.66667175292969,62.0,1.0,WarmUp
387229.5,684261.3125,750000.0625,750000.0625,750000.0625,417318.1875,419305.875,612534.375,0.1201171875,0.933349609375,-0.19140625,6.072997570037842,-1.2817381620407104,-1.2817381620407104,66.66667175292969,63.0,1.0,WarmUp
384570.375,677577.1875,750000.0625,750000.0625,750000.0625,414716.78125,415904.375,606415.625,0.12255859375,0.935546875,-0.19287109375,6.134032726287842,-1.2512205839157104,-1.4343260526657104,66.66667175292969,64.0,1.0,WarmUp
382480.75,671329.3125,750000.0625,750000.0625,750000.0625,412447.28125,412926.6875,600638.4375,0.12646484375,0.936767578125,-0.19384765625,5.981444835662842,-1.1901854276657104,-1.5563963651657104,66.66667175292969,65.0,1.0,WarmUp
381442.28125,666073.8125,750000.0625,750000.0625,750000.0625,410701.34375,410826.5,595511.3125,0.1279296875,0.93896484375,-0.194091796875,5.798339366912842,-1.0986326932907104,-1.5869139432907104,66.66667175292969,66.0,1.0,WarmUp
380593.28125,661289.625,750000.0625,750000.0625,750000.0625,409080.65625,409005.5625,590723.4375,0.13037109375,0.943359375,-0.197509765625,5.584716320037842,-0.8850097060203552,-1.5258787870407104,66.66667175292969,67.0,1.0,WarmUp
378939.6875,656130.375,750000.0625,750000.0625,750000.0625,407164.21875,406663.28125,585784.25,0.13134765625,0.946533203125,-0.19970703125,5.432128429412842,-0.7629393935203552,-1.4343260526657104,66.66667175292969,68.0,1.0,WarmUp
376671.25,650511.4375,750000.0625,750000.0625,750000.0625,405026.59375,403822.90625,580634.5,0.13232421875,0.94775390625,-0.201171875,5.035399913787842,-0.5798339247703552,-1.2512205839157104,66.66667175292969,69.0,1.0,WarmUp
374939.4375,645280.25,750000.0625,750000.0625,750000.0625,403178.09375,401358.40625,575769.0,0.1337890625,0.95263671875,-0.2021484375,4.638671398162842,-0.3356933295726776,-1.0375975370407104,66.66667175292969,70.0,1.0,WarmUp
374215.6875,640968.375,750000.0625,750000.0625,750000.0625,401822.96875,399732.28125,571507.9375,0.134521484375,0.956787109375,-0.204833984375,4.302978038787842,0.0,-0.9765624403953552,66.66667175292969,71.0,1.0,WarmUp
373672.09375,637084.9375,750000.0625,750000.0625,750000.0625,400587.96875,398380.4375,567558.5,0.13427734375,0.95947265625,-0.20068359375,3.723144292831421,0.3051757514476776,-0.7019042372703552,66.66667175292969,72.0,1.0,WarmUp
372311.3125,632774.8125,750000.0625,750000.0625,750000.0625,399025.15625,396469.28125,563399.375,0.133056640625,0.96142578125,-0.198974609375,3.173827886581421,0.5493163466453552,-0.4882812201976776,66.66667175292969,73.0,1.0,WarmUp
370349.75,628000.1875,750000.0625,750000.0625,750000.0625,397242.03125,394065.9375,559011.0,0.133544921875,0.96337890625,-0.201171875,2.716064214706421,0.7629393935203552,-0.2441406100988388,66.66667175292969,74.0,1.0,WarmUp
368889.1875,623555.0625,750000.0625,750000.0625,750000.0625,395722.46875,392013.5,554869.1875,0.130126953125,0.969482421875,-0.201171875,2.166747808456421,1.0375975370407104,0.0,66.66667175292969,75.0,1.0,WarmUp
368403.78125,619970.25,750000.0625,750000.0625,750000.0625,394670.3125,390757.25,551284.1875,0.12744140625,0.971435546875,-0.201171875,1.7395018339157104,1.2817381620407104,0.1831054538488388,66.66667175292969,76.0,1.0,WarmUp
368096.5,616786.6875,750000.0625,750000.0625,750000.0625,393723.59375,389753.03125,547977.4375,0.125,0.973388671875,-0.198974609375,1.2512205839157104,1.4038084745407104,0.4577636420726776,66.66667175292969,77.0,1.0,WarmUp
366982.03125,613170.8125,750000.0625,750000.0625,750000.0625,392444.4375,388198.6875,544452.5,0.12060546875,0.976806640625,-0.201171875,0.6408690810203552,1.5258787870407104,0.6408690810203552,66.66667175292969,78.0,1.0,WarmUp
365248.71875,609055.0,750000.0625,750000.0625,750000.0625,390927.46875,386129.8125,540672.5625,0.115478515625,0.975341796875,-0.197509765625,0.0915527269244194,1.5563963651657104,0.7934569716453552,66.66667175292969,79.0,1.0,WarmUp
363996.21875,605233.6875,750000.0625,750000.0625,750000.0625,389659.6875,384376.875,537100.1875,0.11328125,0.974365234375,-0.198486328125,-0.5798339247703552,1.4648436307907104,0.8850097060203552,66.66667175292969,80.0,1.0,WarmUp
363711.09375,602248.375,750000.0625,750000.0625,750000.0625,388848.5,383411.84375,534060.1875,0.110595703125,0.970458984375,-0.19921875,-1.1596678495407104,1.4038084745407104,1.0375975370407104,66.66667175292969,81.0,1.0,WarmUp
363596.8125,599643.3125,749540.5625,749267.0,749477.625,388142.09375,382694.4375,531286.5,0.10986328125,0.968505859375,-0.203857421875,-1.6784666776657104,1.3732908964157104,1.1291502714157104,66.66667175292969,82.0,1.0,WarmUp
362672.625,596574.4375,748126.3125,747851.0625,748064.4375,387097.4375,381414.125,528272.5,0.110595703125,0.9638671875,-0.203125,-2.288818120956421,1.2817381620407104,1.1901854276657104,66.66667175292969,83.0,1.0,WarmUp
361124.1875,592990.75,746768.9375,746491.8125,746708.625,385796.40625,379605.59375,524975.625,0.112548828125,0.95947265625,-0.203125,-2.593993902206421,1.2207030057907104,1.2817381620407104,66.66667175292969,84.0,1.0,WarmUp
360048.71875,589684.375,745484.1875,745205.0625,745424.875,384742.375,378114.09375,521878.9375,0.1142578125,0.9580078125,-0.207275390625,-2.929687261581421,1.2207030057907104,1.3427733182907104,66.66667175292969,85.0,1.0,WarmUp
359919.96875,587183.75,744264.875,743984.4375,744206.1875,384126.71875,377386.0625,519290.25,0.119384765625,0.955810546875,-0.20654296875,-3.234863042831421,1.0986326932907104,1.4648436307907104,66.66667175292969,86.0,1.0,WarmUp
359939.625,585022.875,743088.8125,742807.0,743031.0,383588.0625,376876.96875,516928.90625,0.123779296875,0.95654296875,-0.204345703125,-3.417968511581421,1.0986326932907104,1.5258787870407104,66.66667175292969,87.0,1.0,WarmUp
359162.875,582404.875,741948.6875,741665.0,741891.4375,382715.34375,375811.0625,514323.5,0.126220703125,0.9580078125,-0.2060546875,-3.631591558456421,1.0375975370407104,1.6784666776657104,66.66667175292969,88.0,1.0,WarmUp
357765.4375,579259.4375,740852.5625,740566.25,740796.6875,381592.3125,374219.53125,511427.875,0.131591796875,0.959716796875,-0.2021484375,-3.875732183456421,1.0375975370407104,1.7700194120407104,66.66667175292969,89.0,1.0,WarmUp
356816.8125,576359.3125,739813.375,739525.125,739759.0,380691.4375,372917.6875,508701.40625,0.1357421875,0.961181640625,-0.199462890625,-4.241942882537842,1.0986326932907104,1.9531248807907104,66.66667175292969,90.0,1.0,WarmUp
356811.71875,574250.125,738831.6875,738542.25,738778.0,380230.1875,372381.5,506475.4375,0.13916015625,0.96630859375,-0.197998046875,-4.638671398162842,1.3122557401657104,2.136230230331421,66.66667175292969,91.0,1.0,WarmUp
356959.6875,572475.3125,737886.0,737595.1875,737832.75,379848.15625,372061.25,504469.15625,0.14013671875,0.96728515625,-0.199462890625,-4.913329601287842,1.5258787870407104,2.441406011581421,66.66667175292969,92.0,1.0,WarmUp
356301.40625,570225.9375,736964.125,736671.0625,736911.8125,379120.5625,371167.09375,502200.4375,0.142578125,0.968017578125,-0.19775390625,-5.432128429412842,1.7089842557907104,2.655029058456421,66.66667175292969,93.0,1.0,WarmUp
355008.65625,567429.5625,736078.5625,735782.625,736027.25,378134.9375,369743.375,499634.5625,0.1416015625,0.972412109375,-0.197998046875,-5.859374523162842,1.8615721464157104,3.051757574081421,66.66667175292969,94.0,1.0,WarmUp
354165.03125,564865.1875,735243.125,734944.4375,735192.8125,377368.375,368606.03125,497230.59375,0.141357421875,0.97412109375,-0.195068359375,-6.347655773162842,2.166747808456421,3.417968511581421,66.66667175292969,95.0,1.0,WarmUp
354259.15625,563084.375,734449.1875,734149.0,734399.6875,377027.28125,368213.4375,495306.90625,0.14208984375,0.978271484375,-0.1904296875,-6.896972179412842,2.258300542831421,3.692626714706421,66.66667175292969,96.0,1.0,WarmUp
354507.0,561626.75,733685.25,733384.0,733636.5625,376763.875,368039.46875,493599.5,0.141845703125,0.98388671875,-0.186279296875,-7.354735851287842,2.563476324081421,3.906249761581421,66.66667175292969,97.0,1.0,WarmUp
353948.90625,559681.25,732939.6875,732635.5625,732891.9375,376156.8125,367299.53125,491627.34375,0.14404296875,0.989013671875,-0.180419921875,-7.873534679412842,2.624511480331421,4.089354991912842,66.66667175292969,98.0,1.0,WarmUp
352761.59375,557190.6875,732222.875,731915.3125,732175.875,375286.15625,366023.15625,489345.96875,0.1416015625,0.991455078125,-0.177734375,-8.636473655700684,2.746581792831421,4.211425304412842,66.66667175292969,99.0,1.0,WarmUp
351997.0,554901.125,731540.375,731229.1875,731494.25,374608.90625,365000.96875,487187.6875,0.140380859375,0.991943359375,-0.171142578125,-9.368895530700684,2.746581792831421,4.333495616912842,66.66667175292969,100.0,1.0,WarmUp
352159.15625,553367.0625,730897.875,730584.0625,730852.1875,374358.9375,364717.1875,485503.15625,0.140380859375,0.989990234375,-0.1708984375,-10.040282249450684,2.807616949081421,4.455565929412842,66.66667175292969,101.0,1.0,WarmUp
352484.0,552161.5,730277.1875,729961.6875,730231.625,374194.5,364655.21875,484034.90625,0.140380859375,0.986328125,-0.169921875,-10.742186546325684,2.746581792831421,4.516601085662842,66.66667175292969,102.0,1.0,WarmUp
352008.6875,550476.625,729670.125,729350.3125,729625.25,373680.0625,364027.84375,482296.75,0.14013671875,0.98291015625,-0.1689453125,-11.169432640075684,2.807616949081421,4.486083507537842,66.66667175292969,103.0,1.0,WarmUp
350893.625,548227.3125,729085.9375,728759.8125,729042.75,372894.71875,362861.46875,480241.375,0.139404296875,0.975341796875,-0.166259765625,-11.566161155700684,2.655029058456421,4.577636241912842,66.66667175292969,104.0,1.0,WarmUp
350205.375,546178.5,728535.375,728201.375,728492.75,372311.5,361952.625,478314.75,0.1396484375,0.96875,-0.165771484375,-11.779784202575684,2.563476324081421,4.577636241912842,66.66667175292969,105.0,1.0,WarmUp
350449.625,544891.75,728020.75,727679.5,727978.5625,372157.28125,361788.3125,476865.28125,0.142333984375,0.966796875,-0.165771484375,-11.871336936950684,2.410888433456421,4.455565929412842,66.66667175292969,106.0,1.0,WarmUp
350843.8125,543919.0625,727521.625,727157.0625,727480.125,372070.1875,361829.4375,475611.875,0.140869140625,0.964111328125,-0.16455078125,-11.840819358825684,2.105712652206421,4.364013195037842,66.66667175292969,107.0,1.0,WarmUp
350433.15625,542448.6875,727020.75,726343.1875,726987.3125,371635.5,361299.96875,474074.53125,0.14013671875,0.95947265625,-0.158935546875,-11.810301780700684,1.9531248807907104,4.119872570037842,66.66667175292969,108.0,1.0,WarmUp
349370.125,540393.875,726532.125,724970.9375,726510.3125,370920.875,360216.625,472203.0625,0.138427734375,0.95458984375,-0.158447265625,-11.810301780700684,1.7395018339157104,3.906249761581421,66.66667175292969,109.0,1.0,WarmUp
348721.5625,538533.8125,726082.0625,723627.75,726062.5625,370402.75,359385.125,470453.28125,0.136962890625,0.950927734375,-0.156005859375,-11.596678733825684,1.4953612089157104,3.540038824081421,66.66667175292969,110.0,1.0,WarmUp
348992.8125,537422.625,725664.4375,722663.3125,725645.8125,370302.09375,359278.75,469158.3125,0.13623046875,0.9443359375,-0.154296875,-11.444090843200684,1.2817381620407104,3.265380620956421,66.66667175292969,111.0,1.0,WarmUp
349403.90625,536602.3125,725258.5,721761.625,725240.75,370264.8125,359369.84375,468045.375,0.135986328125,0.94091796875,-0.1533203125,-11.138915061950684,1.0070799589157104,3.021239995956421,66.66667175292969,112.0,1.0,WarmUp
349003.46875,535266.625,724850.3125,720495.9375,724833.375,369866.5,358875.6875,466627.1875,0.138671875,0.933837890625,-0.150146484375,-10.803221702575684,0.8239745497703552,2.685546636581421,66.66667175292969,113.0,1.0,WarmUp
347962.9375,533357.375,724456.8125,718951.5625,724441.375,369195.21875,357835.53125,464875.8125,0.140869140625,0.9306640625,-0.150634765625,-10.314940452575684,0.6103515028953552,2.258300542831421,66.66667175292969,114.0,1.0,WarmUp
347349.25,531651.5625,724096.9375,717649.0,724082.8125,368731.03125,357058.40625,463261.375,0.14501953125,0.929931640625,-0.150390625,-9.735106468200684,0.3662109076976776,1.9531248807907104,66.66667175292969,115.0,1.0,WarmUp
347623.03125,530641.875,723752.3125,716774.0625,723739.0625,368652.15625,356975.78125,462061.375,0.150146484375,0.93359375,-0.1474609375,-9.246825218200684,0.1220703050494194,1.8615721464157104,66.66667175292969,116.0,1.0,WarmUp
348076.9375,529965.5,723423.875,716016.5,723410.9375,368666.46875,357123.59375,461073.5,0.154541015625,0.935546875,-0.14794921875,-8.819579124450684,-0.03051757626235485,1.6174315214157104,66.66667175292969,117.0,1.0,WarmUp
347750.34375,528803.25,723097.375,714957.0,723084.875,368338.875,356716.15625,459818.6875,0.158935546875,0.939453125,-0.145263671875,-8.544920921325684,-0.0610351525247097,1.4953612089157104,66.66667175292969,118.0,1.0,WarmUp
346782.3125,527052.9375,722775.0625,713649.8125,722763.625,367735.75,355760.40625,458231.53125,0.160888671875,0.9443359375,-0.14501953125,-8.178709983825684,0.0,1.2512205839157104,66.66667175292969,119.0,1.0,WarmUp
346253.75,525508.3125,722476.375,712564.4375,722466.1875,367336.0,355074.03125,456783.75,0.161376953125,0.9501953125,-0.14453125,-7.843017101287842,-0.03051757626235485,1.1901854276657104,66.66667175292969,120.0,1.0,WarmUp
346646.0625,524702.6875,722201.8125,711897.4375,722191.5,367345.46875,355120.6875,455800.625,0.160888671875,0.9541015625,-0.143310546875,-7.568358898162842,-0.03051757626235485,1.0681151151657104,66.66667175292969,121.0,1.0,WarmUp
347186.28125,524193.9375,721931.6875,711305.9375,721921.5,367420.6875,355371.03125,455006.34375,0.157470703125,0.957763671875,-0.142333984375,-7.293700695037842,-0.03051757626235485,0.9765624403953552,66.66667175292969,122.0,1.0,WarmUp
346920.0,523189.625,721658.625,710390.0,721649.1875,367146.5625,355048.4375,453918.4375,0.15380859375,0.962890625,-0.138671875,-6.927489757537842,-0.03051757626235485,0.7629393935203552,66.66667175292969,123.0,1.0,WarmUp
345991.96875,521590.3125,721391.9375,709204.875,721383.1875,366585.0,354160.625,452481.3125,0.15087890625,0.964599609375,-0.136962890625,-6.713866710662842,-0.0915527269244194,0.5798339247703552,66.66667175292969,124.0,1.0,WarmUp
345477.78125,520173.21875,721148.9375,708210.25,721141.0625,366212.25,353520.84375,451156.5625,0.148681640625,0.966552734375,-0.135498046875,-6.561278820037842,-0.2136230319738388,0.3967284858226776,66.66667175292969,125.0,1.0,WarmUp
345885.75,519488.375,720929.1875,707632.3125,720921.125,366256.96875,353607.28125,450284.40625,0.145751953125,0.96875,-0.1328125,-6.408690929412842,-0.3356933295726776,0.2441406100988388,66.66667175292969,126.0,1.0,WarmUp
346446.78125,519098.375,720709.9375,707135.625,720702.0,366369.53125,353903.15625,449602.5,0.14501953125,0.97119140625,-0.131103515625,-6.347655773162842,-0.4577636420726776,0.03051757626235485,66.66667175292969,127.0,1.0,WarmUp
346192.6875,518192.5,720482.6875,706300.3125,720475.0625,366120.53125,353614.71875,448617.875,0.14501953125,0.973388671875,-0.135009765625,-6.347655773162842,-0.5493163466453552,-0.1525878757238388,66.66667175292969,128.0,1.0,WarmUp
345277.96875,516696.1875,720259.8125,705198.3125,720253.25,365587.46875,352760.6875,447283.09375,0.14306640625,0.973388671875,-0.1298828125,-6.378173351287842,-0.6103515028953552,-0.2746581733226776,66.66667175292969,129.0,1.0,WarmUp
344773.53125,515367.875,720059.0,704286.1875,720053.0625,365243.875,352151.3125,446057.5,0.139404296875,0.97021484375,-0.131103515625,-6.286620616912842,-0.7934569716453552,-0.3356933295726776,66.66667175292969,130.0,1.0,WarmUp
345178.8125,514767.125,719879.625,703774.75,719873.5625,365310.5,352262.09375,445275.65625,0.137939453125,0.96435546875,-0.12890625,-6.195067882537842,-1.1901854276657104,-0.4577636420726776,66.66667175292969,131.0,1.0,WarmUp
345729.5625,514453.40625,719697.625,703326.1875,719692.0625,365430.75,352563.8125,444663.75,0.138427734375,0.9580078125,-0.12646484375,-6.072997570037842,-1.3732908964157104,-0.5798339247703552,66.66667175292969,132.0,1.0,WarmUp
345483.15625,513628.28125,719511.5625,702562.8125,719506.375,365204.1875,352295.6875,443754.84375,0.134765625,0.95068359375,-0.1259765625,-5.859374523162842,-1.5563963651657104,-0.7629393935203552,66.66667175292969,133.0,1.0,WarmUp
344599.53125,512232.71875,719331.3125,701550.125,719326.625,364703.34375,351479.5,442509.3125,0.133544921875,0.9453125,-0.12890625,-5.645751476287842,-1.8615721464157104,-1.0070799589157104,66.66667175292969,134.0,1.0,WarmUp
344112.90625,510992.71875,719164.1875,700707.625,719159.625,364381.90625,350896.75,441364.09375,0.134765625,0.940673828125,-0.133056640625,-5.279540538787842,-2.136230230331421,-1.0986326932907104,66.66667175292969,135.0,1.0,WarmUp
344537.40625,510473.90625,719014.4375,700255.0625,719009.875,364470.78125,351028.625,440657.0625,0.135986328125,0.938720703125,-0.13525390625,-4.760741710662842,-2.258300542831421,-1.2817381620407104,66.66667175292969,136.0,1.0,WarmUp
345123.1875,510257.34375,718867.25,699879.3125,718862.6875,364625.1875,351372.125,440139.84375,0.138671875,0.940185546875,-0.14013671875,-4.211425304412842,-2.563476324081421,-1.4343260526657104,66.66667175292969,137.0,1.0,WarmUp
344901.65625,509514.75,718711.0625,699174.125,718706.625,364414.28125,351136.8125,439318.90625,0.140869140625,0.946044921875,-0.141357421875,-3.662109136581421,-2.746581792831421,-1.4953612089157104,66.66667175292969,138.0,1.0,WarmUp
344028.0625,508182.03125,718555.6875,698209.3125,718552.0,363924.5,350343.75,438146.5,0.14306640625,0.951904296875,-0.140869140625,-3.265380620956421,-2.807616949081421,-1.4953612089157104,66.66667175292969,139.0,1.0,WarmUp
343561.625,507030.21875,718419.0625,697426.75,718415.75,363626.34375,349794.8125,437083.75,0.1435546875,0.95654296875,-0.141357421875,-3.021239995956421,-2.899169683456421,-1.4343260526657104,66.66667175292969,140.0,1.0,WarmUp
344008.03125,506598.28125,718300.0625,697037.75,718296.6875,363740.25,349969.15625,436464.5,0.144775390625,0.962890625,-0.14013671875,-2.868652105331421,-2.899169683456421,-1.5258787870407104,66.66667175292969,141.0,1.0,WarmUp
344619.125,506465.4375,718179.8125,696722.0625,718176.1875,363920.40625,350351.375,436033.65625,0.14306640625,0.966552734375,-0.13916015625,-2.777099370956421,-2.899169683456421,-1.5563963651657104,66.66667175292969,142.0,1.0,WarmUp
344433.6875,505819.09375,718052.875,696084.25,718049.625,363749.625,350160.125,435304.4375,0.141357421875,0.969970703125,-0.13623046875,-2.838134527206421,-2.777099370956421,-1.4953612089157104,66.66667175292969,143.0,1.0,WarmUp
343580.40625,504556.84375,717919.375,695168.8125,717916.875,363278.28125,349387.09375,434198.03125,0.14111328125,0.976318359375,-0.13671875,-2.899169683456421,-2.685546636581421,-1.4038084745407104,66.66667175292969,144.0,1.0,WarmUp
343130.21875,503468.875,717807.375,694431.0,717804.5625,363004.25,348866.21875,433208.9375,0.142333984375,0.978271484375,-0.138671875,-3.112792730331421,-2.624511480331421,-1.2207030057907104,66.66667175292969,145.0,1.0,WarmUp
343585.03125,503100.34375,717709.5625,694081.625,717707.0625,363134.40625,349062.03125,432663.71875,0.143798828125,0.98193359375,-0.137939453125,-3.265380620956421,-2.502441167831421,-1.1596678495407104,66.66667175292969,146.0,1.0,WarmUp
344209.8125,503035.0625,717612.0,693812.125,717609.9375,363333.96875,349470.78125,432307.875,0.14306640625,0.982177734375,-0.138916015625,-3.387450933456421,-2.532958745956421,-1.1291502714157104,66.66667175292969,147.0,1.0,WarmUp
344024.03125,502438.09375,717498.75,693206.0625,717496.5,363159.8125,349290.375,431632.6875,0.14208984375,0.98291015625,-0.137939453125,-3.448486089706421,-2.532958745956421,-1.0681151151657104,66.66667175292969,148.0,1.0,WarmUp
343188.875,501254.78125,717386.9375,692340.6875,717385.0,362709.1875,348557.78125,430612.625,0.143798828125,0.98388671875,-0.1396484375,-3.509521245956421,-2.380370855331421,-0.9460448622703552,66.66667175292969,149.0,1.0,WarmUp
342748.8125,500232.15625,717293.6875,691647.4375,717292.0,362448.03125,348061.03125,429697.65625,0.144287109375,0.98291015625,-0.137451171875,-3.662109136581421,-2.227782964706421,-0.9765624403953552,66.66667175292969,150.0,1.0,WarmUp
343213.5625,499918.78125,717213.3125,691342.875,717211.25,362588.5,348269.625,429214.21875,0.146728515625,0.979248046875,-0.13671875,-3.753661870956421,-1.9836424589157104,-0.8544921278953552,66.66667175292969,151.0,1.0,WarmUp
343842.34375,499902.15625,717131.375,691110.0625,717129.0,362797.25,348691.625,428911.75,0.146484375,0.974365234375,-0.1357421875,-3.845214605331421,-1.9226073026657104,-0.8544921278953552,66.66667175292969,152.0,1.0,WarmUp
343682.125,499382.6875,717030.9375,690551.875,717036.0625,362652.40625,348544.625,428311.03125,0.146728515625,0.97412109375,-0.138916015625,-3.906249761581421,-1.7395018339157104,-0.8544921278953552,66.66667175292969,153.0,1.0,WarmUp
342849.03125,498244.375,716931.6875,689741.25,716940.125,362212.28125,347822.5,427344.0,0.1474609375,0.9736328125,-0.13916015625,-3.936767339706421,-1.4953612089157104,-0.8850097060203552,66.66667175292969,154.0,1.0,WarmUp
342413.4375,497273.5,716861.9375,689183.6875,716860.4375,361957.09375,347332.28125,426479.25,0.147216796875,0.973388671875,-0.136474609375,-3.875732183456421,-1.4038084745407104,-0.7324218153953552,66.66667175292969,155.0,1.0,WarmUp
342876.5,497008.5,716798.1875,689009.1875,716796.25,362107.9375,347553.90625,426049.65625,0.145751953125,0.975341796875,-0.134765625,-3.784179449081421,-1.1596678495407104,-0.6408690810203552,66.66667175292969,156.0,1.0,WarmUp
343508.875,497035.84375,716730.4375,688878.9375,716728.3125,362327.4375,347985.65625,425795.75,0.14453125,0.977783203125,-0.1337890625,-3.814697027206421,-0.8544921278953552,-0.6103515028953552,66.66667175292969,157.0,1.0,WarmUp
343350.0,496548.125,716646.6875,688413.3125,716645.3125,362194.46875,347847.875,425236.875,0.140625,0.9794921875,-0.133544921875,-3.814697027206421,-0.7324218153953552,-0.5187987685203552,66.66667175292969,158.0,1.0,WarmUp
342537.0,495471.78125,716567.125,687678.8125,716566.1875,361777.40625,347154.875,424332.0625,0.13720703125,0.98095703125,-0.13134765625,-3.723144292831421,-0.6408690810203552,-0.5493163466453552,66.66667175292969,159.0,1.0,WarmUp
342100.96875,494540.59375,716501.375,687087.5625,716500.125,361532.875,346679.25,423515.59375,0.131591796875,0.976806640625,-0.13037109375,-3.875732183456421,-0.4577636420726776,-0.6103515028953552,66.66667175292969,160.0,1.0,WarmUp
342568.125,494317.0,716445.75,686874.125,716444.1875,361688.0,346910.09375,423123.375,0.131103515625,0.970947265625,-0.128173828125,-3.692626714706421,-0.4882812201976776,-0.7629393935203552,66.66667175292969,161.0,1.0,WarmUp
343197.09375,494373.59375,716383.125,686724.125,716381.375,361896.65625,347341.9375,422898.4375,0.132568359375,0.963134765625,-0.12646484375,-3.692626714706421,-0.6103515028953552,-0.7934569716453552,66.66667175292969,162.0,1.0,WarmUp
343047.25,493932.28125,716313.875,686258.6875,716312.8125,361768.09375,347219.4375,422390.59375,0.13525390625,0.9580078125,-0.1298828125,-3.417968511581421,-0.6103515028953552,-0.8544921278953552,66.66667175292969,163.0,1.0,WarmUp
342231.59375,492885.03125,716243.25,685511.3125,716242.625,361345.90625,346522.5,421522.625,0.138427734375,0.95556640625,-0.131103515625,-3.082275152206421,-0.6103515028953552,-0.9460448622703552,66.66667175292969,164.0,1.0,WarmUp
341800.3125,491985.96875,716184.4375,684927.375,716183.8125,361099.5,346047.21875,420739.96875,0.142822265625,0.955078125,-0.135986328125,-2.655029058456421,-0.6103515028953552,-0.8239745497703552,66.66667175292969,165.0,1.0,WarmUp
342275.3125,491792.84375,716137.0625,684721.3125,716136.0625,361261.78125,346282.1875,420381.625,0.143798828125,0.9560546875,-0.14013671875,-2.136230230331421,-0.5798339247703552,-0.9155272841453552,66.66667175292969,166.0,1.0,WarmUp
342932.09375,491911.6875,716089.125,684600.5,716087.6875,361503.71875,346747.46875,420220.40625,0.1455078125,0.960693359375,-0.139892578125,-1.8005369901657104,-0.3662109076976776,-0.8239745497703552,66.66667175292969,167.0,1.0,WarmUp
342801.375,491528.375,716032.625,684162.8125,716031.375,361398.9375,346651.6875,419769.28125,0.144287109375,0.964599609375,-0.135986328125,-1.4038084745407104,-0.2441406100988388,-0.7324218153953552,66.66667175292969,168.0,1.0,WarmUp
341995.65625,490528.1875,715974.0625,683442.0,715972.75,360998.84375,345978.46875,418951.65625,0.142333984375,0.9677734375,-0.134033203125,-1.3122557401657104,-0.1220703050494194,-0.7324218153953552,66.66667175292969,169.0,1.0,WarmUp
341573.21875,489682.40625,715928.5625,682882.0625,715927.125,360773.90625,345526.6875,418221.28125,0.139404296875,0.96875,-0.13232421875,-1.1901854276657104,0.0,-0.8850097060203552,66.66667175292969,170.0,1.0,WarmUp
342052.96875,489537.03125,715894.375,682705.875,715893.0625,360956.90625,345788.5625,417920.6875,0.135009765625,0.968505859375,-0.129638671875,-1.1901854276657104,0.0610351525247097,-0.9155272841453552,66.66667175292969,171.0,1.0,WarmUp
342708.5,489694.8125,715855.6875,682596.5,715854.6875,361207.59375,346264.46875,417800.09375,0.131103515625,0.96923828125,-0.1298828125,-1.1901854276657104,0.1525878757238388,-1.0070799589157104,66.66667175292969,172.0,1.0,WarmUp
342570.375,489335.40625,715805.625,682164.4375,715804.75,361100.125,346168.71875,417370.375,0.12890625,0.96826171875,-0.12939453125,-1.0681151151657104,0.1220703050494194,-1.0681151151657104,66.66667175292969,173.0,1.0,WarmUp
341764.96875,488364.09375,715750.5625,681456.375,715749.1875,360699.15625,345493.4375,416575.125,0.12744140625,0.97216796875,-0.12744140625,-1.1291502714157104,0.03051757626235485,-1.0681151151657104,66.66667175292969,174.0,1.0,WarmUp
341348.25,487547.71875,715711.375,680918.0625,715710.3125,360484.125,345051.84375,415885.59375,0.1279296875,0.974609375,-0.125732421875,-1.0375975370407104,0.0610351525247097,-1.1291502714157104,66.66667175292969,175.0,1.0,WarmUp
341831.5,487426.3125,715684.5625,680756.125,715683.3125,360665.25,345316.3125,415614.09375,0.130126953125,0.985107421875,-0.1279296875,-1.0986326932907104,-0.1220703050494194,-1.1291502714157104,66.66667175292969,176.0,1.0,WarmUp
342492.3125,487602.78125,715649.625,680664.375,715648.1875,360908.53125,345793.65625,415517.875,0.129638671875,0.99560546875,-0.123291015625,-1.1291502714157104,-0.3356933295726776,-1.0681151151657104,66.66667175292969,177.0,1.0,WarmUp
342371.4375,487283.53125,715605.6875,680253.0,715604.4375,360809.75,345715.875,415130.375,0.130615234375,1.00390625,-0.11669921875,-1.3732908964157104,-0.4272460639476776,-0.9460448622703552,66.66667175292969,178.0,1.0,WarmUp
341578.40625,486347.53125,715560.625,679566.4375,715559.5,360419.65625,345063.75,414381.0625,0.127685546875,1.010009765625,-0.11669921875,-1.8005369901657104,-0.4882812201976776,-0.9460448622703552,66.66667175292969,179.0,1.0,WarmUp
341158.1875,485542.78125,715524.8125,679036.4375,715523.75,360199.71875,344618.59375,413708.5625,0.128173828125,1.006591796875,-0.11572265625,-2.227782964706421,-0.4882812201976776,-0.8544921278953552,66.66667175292969,180.0,1.0,WarmUp
341643.65625,485451.9375,715499.9375,678888.125,715499.125,360385.34375,344886.90625,413465.625,0.12548828125,0.995361328125,-0.115478515625,-2.685546636581421,-0.6408690810203552,-0.7019042372703552,66.66667175292969,181.0,1.0,WarmUp
342308.40625,485665.78125,715474.1875,678821.8125,715472.6875,360648.46875,345382.375,413412.6875,0.12548828125,0.984375,-0.114501953125,-2.899169683456421,-0.6103515028953552,-0.7934569716453552,66.66667175292969,182.0,1.0,WarmUp
342194.75,485378.0,715434.75,678436.375,715433.125,360560.5625,345311.21875,413059.4375,0.125244140625,0.972900390625,-0.11328125,-3.051757574081421,-0.7629393935203552,-0.8544921278953552,66.66667175292969,183.0,1.0,WarmUp
341401.8125,484470.78125,715390.6875,677765.8125,715389.5,360172.09375,344662.5625,412336.78125,0.12646484375,0.962890625,-0.114013671875,-2.868652105331421,-0.8239745497703552,-0.7934569716453552,66.66667175292969,184.0,1.0,WarmUp
340985.34375,483702.9375,715360.8125,677255.9375,715359.6875,359958.6875,344229.5,411698.9375,0.1259765625,0.954833984375,-0.114013671875,-2.563476324081421,-0.9765624403953552,-0.7934569716453552,66.66667175292969,185.0,1.0,WarmUp
341467.875,483634.1875,715343.625,677117.1875,715342.25,360141.25,344496.625,411480.4375,0.123291015625,0.951171875,-0.11279296875,-2.197265386581421,-1.2817381620407104,-0.8239745497703552,66.66667175292969,186.0,1.0,WarmUp
342139.59375,483871.21875,715317.4375,677056.8125,715316.5,360400.09375,344989.71875,411445.03125,0.123291015625,0.94921875,-0.115478515625,-1.7700194120407104,-1.4343260526657104,-0.7934569716453552,66.66667175292969,187.0,1.0,WarmUp
342029.4375,483602.28125,715282.3125,676680.75,715281.25,360316.125,344927.5,411118.59375,0.12109375,0.949951171875,-0.1142578125,-1.4038084745407104,-1.6479490995407104,-0.8544921278953552,66.66667175292969,188.0,1.0,WarmUp
341246.5,482722.96875,715247.1875,676025.9375,715246.125,359941.875,344294.75,410431.78125,0.1201171875,0.951171875,-0.111083984375,-0.9460448622703552,-1.8615721464157104,-0.7019042372703552,66.66667175292969,189.0,1.0,WarmUp
340834.78125,481985.34375,715223.9375,675529.9375,715222.875,359734.4375,343871.5,409824.4375,0.119873046875,0.9541015625,-0.110595703125,-0.5798339247703552,-2.014159917831421,-0.7019042372703552,66.66667175292969,190.0,1.0,WarmUp
341318.125,481945.125,715208.75,675412.0625,715207.875,359927.125,344147.0625,409633.09375,0.119140625,0.953857421875,-0.111083984375,-0.2746581733226776,-2.105712652206421,-0.7629393935203552,66.66667175292969,191.0,1.0,WarmUp
341980.28125,482189.8125,715185.9375,675365.6875,715184.875,360188.53125,344640.5,409611.5625,0.1181640625,0.955078125,-0.109375,-0.0915527269244194,-2.380370855331421,-0.7934569716453552,66.66667175292969,192.0,1.0,WarmUp
341877.375,481949.5,715153.5625,675013.625,715152.875,360110.9375,344586.65625,409306.3125,0.119384765625,0.9560546875,-0.113525390625,0.2136230319738388,-2.563476324081421,-0.8239745497703552,66.66667175292969,193.0,1.0,WarmUp
341090.84375,481092.625,715119.625,674373.875,715118.625,359733.28125,343948.5625,408632.5625,0.1201171875,0.955810546875,-0.115234375,0.4577636420726776,-2.777099370956421,-0.7934569716453552,66.66667175292969,194.0,1.0,WarmUp
340676.46875,480368.875,715101.4375,673889.8125,715100.125,359529.4375,343525.0625,408046.84375,0.12158203125,0.957275390625,-0.115966796875,0.7934569716453552,-2.899169683456421,-0.8850097060203552,66.66667175292969,195.0,1.0,WarmUp
341165.78125,480348.75,715092.0625,673784.9375,715090.8125,359723.71875,343808.125,407882.34375,0.122314453125,0.956787109375,-0.115966796875,0.8544921278953552,-2.960204839706421,-0.7324218153953552,66.66667175292969,196.0,1.0,WarmUp
341839.90625,480633.0625,715076.5,673757.9375,715075.625,359998.65625,344319.15625,407901.75,0.12548828125,0.955810546875,-0.117431640625,0.9765624403953552,-3.051757574081421,-0.6713866591453552,66.66667175292969,197.0,1.0,WarmUp
341732.34375,480407.84375,715046.4375,673406.75,715045.0625,359915.125,344261.0625,407612.6875,0.128173828125,0.95556640625,-0.117431640625,1.2207030057907104,-3.082275152206421,-0.7324218153953552,66.66667175292969,198.0,1.0,WarmUp
340951.28125,479569.5,715016.625,672781.1875,715014.8125,359544.1875,343631.96875,406967.0,0.127197265625,0.955322265625,-0.116943359375,1.4343260526657104,-3.082275152206421,-0.5493163466453552,66.66667175292969,199.0,1.0,WarmUp
340533.84375,478862.28125,714997.5,672305.875,714996.1875,359339.53125,343207.46875,406397.03125,0.128173828125,0.955322265625,-0.11572265625,1.6479490995407104,-3.143310308456421,-0.5493163466453552,66.66667175292969,200.0,1.0,WarmUp
341012.8125,478849.59375,714988.1875,672207.375,714986.75,359534.1875,343489.90625,406243.0625,0.128173828125,0.95751953125,-0.11669921875,1.8920897245407104,-3.173827886581421,-0.5493163466453552,66.66667175292969,201.0,1.0,WarmUp
341696.59375,479165.375,714979.5625,672198.5,714977.8125,359820.46875,344015.0,406289.90625,0.131591796875,0.95947265625,-0.11962890625,2.014159917831421,-3.143310308456421,-0.4882812201976776,66.66667175292969,202.0,1.0,WarmUp
341591.96875,478963.40625,714953.5,671857.375,714951.8125,359746.59375,343969.3125,406028.21875,0.132080078125,0.96240234375,-0.120849609375,2.258300542831421,-2.990722417831421,-0.5798339247703552,66.66667175292969,203.0,1.0,WarmUp
340809.65625,478142.71875,714923.375,671239.75,714921.8125,359371.09375,343343.28125,405396.5625,0.132568359375,0.964599609375,-0.12109375,2.258300542831421,-2.929687261581421,-0.3967284858226776,66.66667175292969,204.0,1.0,WarmUp
340379.71875,477437.40625,714904.75,670766.375,714903.3125,359156.78125,342915.65625,404835.625,0.13232421875,0.96630859375,-0.119384765625,2.319335699081421,-2.777099370956421,-0.3051757514476776,66.66667175292969,205.0,1.0,WarmUp
340861.4375,477437.40625,714896.6875,670677.625,714895.125,359355.375,343197.46875,404697.84375,0.13330078125,0.970458984375,-0.11962890625,2.288818120956421,-2.593993902206421,-0.2746581733226776,66.66667175292969,206.0,1.0,WarmUp
341548.875,477764.4375,714889.375,670679.5,714887.75,359642.53125,343724.0625,404757.75,0.1328125,0.970703125,-0.119140625,2.227782964706421,-2.471923589706421,-0.1831054538488388,66.66667175292969,207.0,1.0,WarmUp
341458.125,477590.09375,714868.375,670359.5,714866.875,359575.03125,343688.5,404519.9375,0.1328125,0.968994140625,-0.1220703125,2.197265386581421,-2.319335699081421,-0.03051757626235485,66.66667175292969,208.0,1.0,WarmUp
340676.71875,476785.8125,714839.375,669758.0,714837.9375,359204.25,343064.25,403907.9375,0.132080078125,0.967529296875,-0.1201171875,2.075195074081421,-2.105712652206421,0.03051757626235485,66.66667175292969,209.0,1.0,WarmUp
340255.78125,476101.03125,714825.4375,669310.875,714823.6875,359001.75,342646.09375,403373.09375,0.132080078125,0.963134765625,-0.12353515625,1.8310545682907104,-1.9531248807907104,0.0915527269244194,66.66667175292969,210.0,1.0,WarmUp
340730.09375,476105.40625,714819.1875,669228.875,714817.5,359188.34375,342922.28125,403246.84375,0.13427734375,0.96044921875,-0.126953125,1.7089842557907104,-1.7395018339157104,0.1525878757238388,66.66667175292969,211.0,1.0,WarmUp
341419.25,476442.03125,714810.9375,669245.4375,714809.375,359479.46875,343450.3125,403324.90625,0.135498046875,0.95849609375,-0.127685546875,1.6784666776657104,-1.4648436307907104,0.03051757626235485,66.66667175292969,212.0,1.0,WarmUp
341327.78125,476278.9375,714790.0625,668931.0,714788.375,359417.0625,343419.5625,403107.84375,0.134033203125,0.95947265625,-0.130615234375,1.7089842557907104,-1.2817381620407104,0.03051757626235485,66.66667175292969,213.0,1.0,WarmUp
340544.65625,475480.53125,714765.5625,668325.9375,714763.375,359042.25,342795.125,402509.34375,0.134521484375,0.958251953125,-0.130615234375,1.6479490995407104,-1.0681151151657104,0.0915527269244194,66.66667175292969,214.0,1.0,WarmUp
340126.25,474810.34375,714752.25,667883.9375,714750.5,358838.84375,342377.25,401987.46875,0.13525390625,0.960205078125,-0.13037109375,1.6784666776657104,-0.9460448622703552,0.1831054538488388,66.66667175292969,215.0,1.0,WarmUp
340605.09375,474831.625,714748.375,667812.75,714746.5,359039.03125,342660.65625,401882.15625,0.13623046875,0.9599609375,-0.1298828125,1.6784666776657104,-0.6103515028953552,0.1831054538488388,66.66667175292969,216.0,1.0,WarmUp
341297.375,475187.03125,714743.0,667831.25,714740.875,359333.71875,343192.09375,401977.53125,0.135498046875,0.961181640625,-0.13134765625,1.4648436307907104,-0.4577636420726776,0.1525878757238388,66.66667175292969,217.0,1.0,WarmUp
341224.6875,475057.84375,714728.25,667545.3125,714726.1875,359280.71875,343178.15625,401790.875,0.132080078125,0.961181640625,-0.1318359375,1.2817381620407104,-0.1831054538488388,0.1525878757238388,66.66667175292969,218.0,1.0,WarmUp
340445.0625,474275.875,714704.5625,666961.0,714702.9375,358912.09375,342561.40625,401212.03125,0.131591796875,0.960205078125,-0.13134765625,1.2512205839157104,-0.03051757626235485,0.1525878757238388,66.66667175292969,219.0,1.0,WarmUp
340013.9375,473599.59375,714686.9375,666510.4375,714684.8125,358696.34375,342127.875,400687.75,0.130615234375,0.959228515625,-0.13232421875,1.1291502714157104,0.1525878757238388,0.0915527269244194,66.66667175292969,220.0,1.0,WarmUp
340502.03125,473646.625,714685.0625,666457.4375,714682.875,358903.59375,342420.34375,400602.1875,0.130615234375,0.95947265625,-0.1337890625,1.0070799589157104,0.5187987685203552,0.0,66.66667175292969,221.0,1.0,WarmUp
341189.75,474010.875,714681.5,666484.5,714679.625,359195.78125,342955.09375,400715.46875,0.130615234375,0.960205078125,-0.13818359375,1.0070799589157104,0.6408690810203552,0.0,66.66667175292969,222.0,1.0,WarmUp
341113.46875,473887.5,714664.0625,666188.6875,714662.1875,359137.65625,342938.375,400534.15625,0.130859375,0.95849609375,-0.138916015625,1.0070799589157104,0.8239745497703552,0.03051757626235485,66.66667175292969,223.0,1.0,WarmUp
340343.15625,473131.125,714644.375,665617.25,714642.0,358781.90625,342337.8125,399979.125,0.1318359375,0.960693359375,-0.13671875,1.0375975370407104,0.8544921278953552,-0.0610351525247097,66.66667175292969,224.0,1.0,WarmUp
339921.15625,472488.375,714632.75,665191.1875,714630.5625,358585.5625,341928.15625,399492.5625,0.133544921875,0.961669921875,-0.133544921875,1.0070799589157104,1.0070799589157104,0.0915527269244194,66.66667175292969,225.0,1.0,WarmUp
340400.375,472535.5625,714630.125,665138.6875,714627.6875,358783.59375,342217.65625,399415.40625,0.13671875,0.964599609375,-0.132568359375,0.9155272841453552,1.2207030057907104,0.1220703050494194,66.66667175292969,226.0,1.0,WarmUp
341080.21875,472893.71875,714622.5,665167.1875,714620.0,359064.78125,342746.40625,399523.40625,0.136962890625,0.966796875,-0.135986328125,0.9460448622703552,1.4343260526657104,0.2136230319738388,66.66667175292969,227.0,1.0,WarmUp
341006.1875,472779.65625,714605.3125,664885.9375,714603.0,359010.25,342734.15625,399352.28125,0.135986328125,0.97314453125,-0.135498046875,0.9460448622703552,1.6479490995407104,0.3051757514476776,66.66667175292969,228.0,1.0,WarmUp
340234.5,472030.96875,714584.3125,664317.8125,714581.75,358645.125,342127.15625,398809.40625,0.135009765625,0.974365234375,-0.134765625,0.7324218153953552,1.8615721464157104,0.4272460639476776,66.66667175292969,229.0,1.0,WarmUp
339806.53125,471383.65625,714572.6875,663893.25,714570.0,358440.71875,341705.78125,398323.9375,0.13427734375,0.976318359375,-0.1328125,0.6408690810203552,2.014159917831421,0.5493163466453552,66.66667175292969,230.0,1.0,WarmUp
340286.625,471436.65625,714569.8125,663849.625,714566.875,358641.90625,341995.46875,398256.78125,0.1328125,0.978515625,-0.13134765625,0.5187987685203552,2.044677495956421,0.7019042372703552,66.66667175292969,231.0,1.0,WarmUp
340990.09375,471832.75,714567.3125,663902.8125,714564.75,358940.25,342544.0625,398396.875,0.130126953125,0.978515625,-0.133544921875,0.3662109076976776,2.197265386581421,0.7019042372703552,66.66667175292969,232.0,1.0,WarmUp
340921.4375,471737.0625,714553.8125,663635.9375,714551.25,358896.34375,342544.4375,398253.21875,0.1298828125,0.9775390625,-0.13232421875,0.0915527269244194,2.349853277206421,0.8239745497703552,66.66667175292969,233.0,1.0,WarmUp
340150.03125,470999.75,714532.5625,663071.0625,714529.6875,358533.0,341940.125,397717.84375,0.1298828125,0.9775390625,-0.134033203125,-0.0610351525247097,2.349853277206421,0.8239745497703552,66.66667175292969,234.0,1.0,WarmUp
339721.40625,470366.1875,714520.375,662650.375,714517.625,358324.6875,341523.9375,397239.78125,0.130859375,0.975830078125,-0.133544921875,-0.2136230319738388,2.288818120956421,0.7629393935203552,66.66667175292969,235.0,1.0,WarmUp
340203.21875,470431.28125,714519.0625,662617.6875,714516.3125,358528.15625,341819.25,397186.59375,0.13134765625,0.974853515625,-0.13525390625,-0.2441406100988388,2.227782964706421,0.7324218153953552,66.66667175292969,236.0,1.0,WarmUp
340902.03125,470835.5,714519.5,662674.5625,714516.75,358830.71875,342369.375,397340.28125,0.13330078125,0.9755859375,-0.1328125,-0.3662109076976776,2.288818120956421,0.8239745497703552,66.66667175292969,237.0,1.0,WarmUp
340830.21875,470747.34375,714504.3125,662408.625,714501.5,358782.71875,342365.8125,397199.5625,0.131103515625,0.974853515625,-0.1328125,-0.3051757514476776,2.258300542831421,0.8239745497703552,66.66667175292969,238.0,1.0,WarmUp
340055.78125,470016.34375,714485.5,661854.3125,714482.5,358420.34375,341765.25,396673.65625,0.132080078125,0.974853515625,-0.133544921875,-0.3662109076976776,2.227782964706421,0.8850097060203552,66.66667175292969,239.0,1.0,WarmUp
339627.09375,469395.40625,714474.8125,661439.125,714471.75,358218.71875,341353.875,396209.625,0.132568359375,0.972412109375,-0.134521484375,-0.5493163466453552,2.166747808456421,0.8239745497703552,66.66667175292969,240.0,1.0,WarmUp
340102.71875,469473.1875,714476.75,661403.1875,714473.875,358422.5,341646.34375,396167.96875,0.135986328125,0.96875,-0.133544921875,-0.6103515028953552,2.197265386581421,0.7934569716453552,66.66667175292969,241.0,1.0,WarmUp
340799.84375,469879.28125,714476.25,661468.5,714473.1875,358718.5,342192.34375,396327.90625,0.135498046875,0.965087890625,-0.1328125,-0.6713866591453552,2.258300542831421,0.8850097060203552,66.66667175292969,242.0,1.0,WarmUp
340728.3125,469795.4375,714463.0,661214.8125,714459.9375,358670.9375,342191.1875,396198.375,0.134033203125,0.9619140625,-0.1337890625,-0.7019042372703552,2.197265386581421,0.7629393935203552,66.66667175292969,243.0,1.0,WarmUp
339955.21875,469072.125,714443.6875,660666.4375,714440.125,358311.96875,341591.625,395686.875,0.134765625,0.95947265625,-0.1318359375,-0.6713866591453552,2.166747808456421,0.7019042372703552,66.66667175292969,244.0,1.0,WarmUp
339529.53125,468458.875,714436.0625,660260.25,714432.4375,358113.3125,341180.53125,395236.625,0.134033203125,0.958984375,-0.134521484375,-0.6103515028953552,2.227782964706421,0.6408690810203552,66.66667175292969,245.0,1.0,WarmUp
340009.5625,468544.71875,714439.0625,660235.625,714435.75,358318.78125,341474.84375,395206.65625,0.13232421875,0.9609375,-0.133056640625,-0.3051757514476776,2.166747808456421,0.5798339247703552,66.66667175292969,246.0,1.0,WarmUp
340704.78125,468956.25,714437.4375,660297.1875,714433.6875,358610.78125,342013.71875,395370.09375,0.1318359375,0.960693359375,-0.135498046875,-0.1831054538488388,2.105712652206421,0.4577636420726776,66.66667175292969,247.0,1.0,WarmUp
340644.0,468889.46875,714425.0625,660052.3125,714420.8125,358566.78125,342018.0,395253.34375,0.130615234375,0.96337890625,-0.13623046875,-0.1220703050494194,2.105712652206421,0.3356933295726776,66.66667175292969,248.0,1.0,WarmUp
339868.21875,468173.03125,714405.6875,659506.0625,714402.125,358209.53125,341420.0625,394747.125,0.12744140625,0.96630859375,-0.13720703125,0.1525878757238388,2.014159917831421,0.2441406100988388,66.66667175292969,249.0,1.0,WarmUp
339435.125,467562.65625,714396.125,659103.875,714392.875,358011.46875,341006.53125,394303.125,0.12890625,0.96875,-0.13427734375,0.1525878757238388,1.8920897245407104,0.1220703050494194,66.66667175292969,250.0,1.0,WarmUp
339913.625,467647.5,714400.25,659085.3125,714396.8125,358215.15625,341303.8125,394282.65625,0.129150390625,0.9697265625,-0.1328125,0.2441406100988388,1.7089842557907104,0.1525878757238388,66.66667175292969,251.0,1.0,WarmUp
340618.59375,468071.3125,714400.0625,659157.8125,714396.1875,358510.71875,341846.96875,394457.25,0.1298828125,0.970947265625,-0.1318359375,0.2136230319738388,1.5258787870407104,0.1220703050494194,66.66667175292969,252.0,1.0,WarmUp
340548.78125,468000.21875,714383.75,658912.75,714380.1875,358463.09375,341840.875,394336.75,0.13037109375,0.96875,-0.13037109375,0.0610351525247097,1.5258787870407104,0.1220703050494194,66.66667175292969,253.0,1.0,WarmUp
339778.8125,467300.0,714367.625,658385.0625,714364.375,358113.78125,341250.1875,393846.6875,0.13330078125,0.96826171875,-0.128662109375,-0.0915527269244194,1.5258787870407104,0.2746581733226776,66.66667175292969,254.0,1.0,WarmUp
339347.5,466701.6875,714362.75,657995.625,714359.3125,357913.21875,340837.65625,393415.75,0.135009765625,0.964599609375,-0.12939453125,-0.1220703050494194,1.5563963651657104,0.4882812201976776,66.66667175292969,255.0,1.0,WarmUp
339826.625,466806.5625,714369.1875,657983.875,714365.5625,358117.78125,341132.875,393406.53125,0.135009765625,0.961181640625,-0.13134765625,-0.2136230319738388,1.4953612089157104,0.6408690810203552,66.66667175292969,256.0,1.0,WarmUp
340520.0,467226.84375,714367.9375,658063.125,714364.375,358410.0625,341674.25,393587.40625,0.13525390625,0.955810546875,-0.134765625,-0.1220703050494194,1.2817381620407104,0.7629393935203552,66.66667175292969,257.0,1.0,WarmUp
340458.125,467169.375,714355.0,657831.75,714351.0625,358367.40625,341677.8125,393486.03125,0.133544921875,0.955810546875,-0.138427734375,0.0,1.1901854276657104,0.8544921278953552,66.66667175292969,258.0,1.0,WarmUp
339686.90625,466477.09375,714335.6875,657305.3125,714331.75,358009.4375,341080.125,393000.1875,0.132080078125,0.95556640625,-0.136962890625,0.1831054538488388,1.0375975370407104,0.8850097060203552,66.66667175292969,259.0,1.0,WarmUp
339237.625,465866.625,714326.0,656909.75,714322.0,357798.25,340653.125,392560.40625,0.130859375,0.959228515625,-0.136474609375,0.4882812201976776,0.8850097060203552,0.9460448622703552,66.66667175292969,260.0,1.0,WarmUp
339714.6875,465972.65625,714332.625,656908.75,714328.375,358008.25,340952.0,392559.9375,0.12841796875,0.96142578125,-0.13525390625,0.7324218153953552,0.8544921278953552,1.0375975370407104,66.66667175292969,261.0,1.0,WarmUp
340425.03125,466418.875,714336.5,657005.0625,714332.1875,358316.4375,341511.6875,392763.25,0.126708984375,0.965576171875,-0.132568359375,0.7934569716453552,0.7019042372703552,1.0070799589157104,66.66667175292969,262.0,1.0,WarmUp
340365.9375,466368.8125,714324.6875,656774.8125,714320.5625,358273.1875,341519.5625,392669.28125,0.12841796875,0.9697265625,-0.1318359375,0.7934569716453552,0.5187987685203552,0.9765624403953552,66.66667175292969,263.0,1.0,WarmUp
339600.1875,465686.8125,714306.875,656250.625,714302.9375,357920.65625,340930.5625,392194.53125,0.124755859375,0.969970703125,-0.130859375,0.7934569716453552,0.4577636420726776,1.0986326932907104,66.66667175292969,264.0,1.0,WarmUp
339163.40625,465095.9375,714300.8125,655866.9375,714296.9375,357723.15625,340515.34375,391774.6875,0.123291015625,0.97119140625,-0.135009765625,0.6103515028953552,0.2441406100988388,1.0986326932907104,66.66667175292969,265.0,1.0,WarmUp
339633.875,465192.84375,714305.625,655865.1875,714302.0,357923.34375,340803.59375,391771.84375,0.122314453125,0.970947265625,-0.134765625,0.5798339247703552,0.0,1.0070799589157104,66.66667175292969,266.0,1.0,WarmUp
340339.125,465632.8125,714305.125,655959.0,714301.375,358219.625,341351.3125,391967.375,0.123046875,0.9697265625,-0.13330078125,0.5187987685203552,-0.1831054538488388,1.0986326932907104,66.66667175292969,267.0,1.0,WarmUp
340292.0,465598.75,714293.6875,655742.8125,714289.875,358182.59375,341365.5,391880.8125,0.125732421875,0.968505859375,-0.13671875,0.4272460639476776,-0.3662109076976776,1.1291502714157104,66.66667175292969,268.0,1.0,WarmUp
339532.65625,464925.875,714279.875,655235.8125,714275.875,357837.3125,340786.4375,391418.3125,0.1298828125,0.965576171875,-0.138427734375,0.3967284858226776,-0.6103515028953552,1.1291502714157104,66.66667175292969,269.0,1.0,WarmUp
339090.09375,464337.40625,714272.9375,654857.3125,714268.875,357635.0,340370.875,391000.96875,0.13134765625,0.964111328125,-0.137939453125,0.3051757514476776,-0.6713866591453552,1.0375975370407104,66.66667175292969,270.0,1.0,WarmUp
339566.46875,464450.59375,714278.75,654859.9375,714275.0,357841.4375,340668.21875,391008.75,0.1328125,0.963134765625,-0.13623046875,0.2746581733226776,-0.7934569716453552,1.0375975370407104,66.66667175292969,271.0,1.0,WarmUp
340279.9375,464901.375,714280.4375,654963.25,714276.125,358153.5625,341225.59375,391220.28125,0.134765625,0.9619140625,-0.138916015625,0.2746581733226776,-0.7934569716453552,0.9765624403953552,66.66667175292969,272.0,1.0,WarmUp
340227.90625,464865.875,714267.75,654750.9375,714263.375,358115.90625,341240.0,391144.09375,0.138427734375,0.959716796875,-0.138916015625,0.2746581733226776,-0.7019042372703552,0.9765624403953552,66.66667175292969,273.0,1.0,WarmUp
339460.96875,464197.125,714252.5625,654238.375,714248.3125,357761.0625,340650.625,390684.8125,0.141357421875,0.957763671875,-0.137939453125,0.1831054538488388,-0.5798339247703552,1.0070799589157104,66.66667175292969,274.0,1.0,WarmUp
339016.15625,463614.375,714248.0625,653862.75,714243.5625,357558.90625,340235.3125,390278.5625,0.143798828125,0.960205078125,-0.13818359375,0.2136230319738388,-0.4577636420726776,1.0375975370407104,66.66667175292969,275.0,1.0,WarmUp
339474.8125,463718.96875,714249.6875,653854.8125,714245.3125,357748.53125,340516.3125,390275.4375,0.14697265625,0.96044921875,-0.13916015625,0.1831054538488388,-0.4272460639476776,1.0986326932907104,66.66667175292969,276.0,1.0,WarmUp
340184.90625,464181.125,714253.8125,653961.8125,714249.375,358053.0625,341075.46875,390493.84375,0.150390625,0.9619140625,-0.14208984375,0.0610351525247097,-0.2136230319738388,1.1596678495407104,66.66667175292969,277.0,1.0,WarmUp
340134.1875,464166.71875,714245.125,653754.125,714240.75,358017.65625,341098.0,390429.03125,0.14990234375,0.964111328125,-0.141845703125,0.0915527269244194,0.0,1.3122557401657104,66.66667175292969,278.0,1.0,WarmUp
339363.96875,463498.03125,714227.3125,653246.5625,714222.9375,357667.34375,340509.25,389971.8125,0.1494140625,0.965087890625,-0.142578125,0.0915527269244194,0.1525878757238388,1.5563963651657104,66.66667175292969,279.0,1.0,WarmUp
338925.0625,462928.34375,714222.125,652880.25,714217.9375,357470.3125,340098.53125,389574.65625,0.147216796875,0.966552734375,-0.140380859375,0.0,0.3051757514476776,1.6479490995407104,66.66667175292969,280.0,1.0,WarmUp
339396.40625,463047.53125,714230.6875,652895.75,714226.6875,357676.03125,340391.78125,389596.8125,0.146240234375,0.9658203125,-0.13525390625,-0.1220703050494194,0.3662109076976776,1.7700194120407104,66.66667175292969,281.0,1.0,WarmUp
340106.03125,463504.03125,714231.0,653002.75,714226.8125,357973.75,340938.6875,389815.25,0.14404296875,0.96435546875,-0.135498046875,-0.1831054538488388,0.4577636420726776,1.7089842557907104,66.66667175292969,282.0,1.0,WarmUp
340061.25,463486.15625,714218.625,652798.5625,714214.375,357941.125,340959.15625,389752.65625,0.143798828125,0.9638671875,-0.1357421875,-0.3051757514476776,0.7019042372703552,1.6479490995407104,66.66667175292969,283.0,1.0,WarmUp
339297.875,462826.0625,714204.6875,652298.875,714200.25,357594.75,340378.5625,389306.15625,0.140380859375,0.964599609375,-0.13720703125,-0.3967284858226776,0.8239745497703552,1.6479490995407104,66.66667175292969,284.0,1.0,WarmUp
338856.125,462258.78125,714201.1875,651931.5625,714196.75,357396.90625,339964.78125,388912.25,0.142578125,0.965576171875,-0.136962890625,-0.3051757514476776,0.7629393935203552,1.6479490995407104,66.66667175292969,285.0,1.0,WarmUp
339319.4375,462373.21875,714205.75,651937.75,714201.3125,357596.1875,340249.625,388930.28125,0.141357421875,0.964111328125,-0.138427734375,-0.2441406100988388,0.7934569716453552,1.5869139432907104,66.66667175292969,286.0,1.0,WarmUp
340029.25,462832.40625,714206.875,652047.1875,714202.75,357895.625,340801.90625,389152.84375,0.144775390625,0.968017578125,-0.135498046875,-0.3662109076976776,0.7934569716453552,1.5563963651657104,66.66667175292969,287.0,1.0,WarmUp
339986.3125,462825.78125,714197.8125,651849.0625,714193.625,357863.6875,340828.1875,389100.4375,0.145751953125,0.969970703125,-0.13330078125,-0.3356933295726776,0.9155272841453552,1.6174315214157104,66.66667175292969,288.0,1.0,WarmUp
339226.09375,462172.0625,714182.5,651351.75,714177.9375,357518.5,340251.59375,388661.625,0.14306640625,0.972412109375,-0.134765625,-0.3662109076976776,0.8850097060203552,1.5869139432907104,66.66667175292969,289.0,1.0,WarmUp
338786.21875,461608.96875,714176.375,650988.25,714171.8125,357317.0625,339837.1875,388270.90625,0.141845703125,0.97509765625,-0.1298828125,-0.3662109076976776,0.8239745497703552,1.6784666776657104,66.66667175292969,290.0,1.0,WarmUp
339260.25,461746.46875,714187.25,651015.9375,714183.3125,357532.625,340141.71875,388312.40625,0.142333984375,0.97607421875,-0.129638671875,-0.4882812201976776,0.8850097060203552,1.6479490995407104,66.66667175292969,291.0,1.0,WarmUp
339969.6875,462206.46875,714190.375,651138.25,714186.1875,357834.5625,340696.125,388542.09375,0.143798828125,0.9755859375,-0.12890625,-0.5798339247703552,0.8850097060203552,1.6479490995407104,66.66667175292969,292.0,1.0,WarmUp
339929.71875,462200.9375,714178.5625,650942.8125,714174.375,357801.65625,340720.96875,388492.46875,0.142333984375,0.975341796875,-0.130615234375,-0.7019042372703552,0.8544921278953552,1.6174315214157104,66.66667175292969,293.0,1.0,WarmUp
339169.0625,461561.5625,714163.9375,650453.75,714159.5625,357458.875,340149.84375,388061.96875,0.139404296875,0.971923828125,-0.1298828125,-0.8239745497703552,0.7629393935203552,1.5258787870407104,66.66667175292969,294.0,1.0,WarmUp
338715.21875,460995.625,714161.3125,650090.0625,714156.875,357255.625,339734.28125,387677.96875,0.1396484375,0.970947265625,-0.13037109375,-0.7629393935203552,0.6408690810203552,1.6784666776657104,66.66667175292969,295.0,1.0,WarmUp
339181.84375,461124.65625,714168.9375,650111.9375,714164.5625,357456.53125,340023.0625,387710.34375,0.140625,0.9716796875,-0.12841796875,-0.8850097060203552,0.5798339247703552,1.6784666776657104,66.66667175292969,296.0,1.0,WarmUp
339895.03125,461593.0625,714169.75,650236.3125,714165.1875,357764.1875,340582.5625,387945.75,0.138916015625,0.974609375,-0.129638671875,-0.8239745497703552,0.4272460639476776,1.7395018339157104,66.66667175292969,297.0,1.0,WarmUp
339853.71875,461590.90625,714158.125,650046.4375,714153.75,357732.71875,340608.3125,387899.15625,0.137939453125,0.975341796875,-0.130859375,-0.7324218153953552,0.1831054538488388,1.7395018339157104,66.66667175292969,298.0,1.0,WarmUp
339089.9375,460947.53125,714142.625,649559.25,714138.1875,357389.5625,340031.5625,387468.03125,0.1376953125,0.974609375,-0.1279296875,-0.7019042372703552,0.1525878757238388,1.7395018339157104,66.66667175292969,299.0,1.0,WarmUp
338635.84375,460376.65625,714137.0,649200.8125,714132.625,357186.15625,339614.46875,387080.46875,0.1376953125,0.9765625,-0.1279296875,-0.7324218153953552,-0.0915527269244194,1.7395018339157104,66.66667175292969,300.0,1.0,WarmUp
339106.75,460511.84375,714145.0625,649232.9375,714140.625,357391.0,339904.96875,387117.5625,0.137939453125,0.979248046875,-0.126953125,-0.7629393935203552,-0.2441406100988388,1.6784666776657104,66.66667175292969,301.0,1.0,WarmUp
339819.75,460982.21875,714147.5,649364.1875,714142.625,357694.0,340464.375,387356.375,0.136474609375,0.97900390625,-0.123779296875,-0.7934569716453552,-0.3662109076976776,1.5869139432907104,66.66667175292969,302.0,1.0,WarmUp
339788.03125,460997.25,714140.0625,649189.75,714135.5625,357673.96875,340502.375,387323.90625,0.13818359375,0.97607421875,-0.12255859375,-0.8850097060203552,-0.4882812201976776,1.6174315214157104,66.66667175292969,303.0,1.0,WarmUp
339026.4375,460369.59375,714126.75,648706.5625,714122.625,357336.71875,339931.25,386904.59375,0.137451171875,0.97216796875,-0.11962890625,-1.1291502714157104,-0.5798339247703552,1.6479490995407104,66.66667175292969,304.0,1.0,WarmUp
338570.46875,459803.5625,714122.875,648342.0625,714118.625,357129.84375,339502.625,386515.40625,0.13916015625,0.9677734375,-0.120361328125,-1.0986326932907104,-0.7019042372703552,1.7089842557907104,66.66667175292969,305.0,1.0,WarmUp
339029.9375,459920.34375,714126.125,648366.75,714121.9375,357324.03125,339782.75,386544.125,0.138916015625,0.962646484375,-0.122802734375,-1.0375975370407104,-0.7629393935203552,1.7700194120407104,66.66667175292969,306.0,1.0,WarmUp
339760.65625,460415.375,714132.25,648515.6875,714127.625,357640.96875,340357.90625,386808.59375,0.135009765625,0.954345703125,-0.12548828125,-0.8850097060203552,-0.9155272841453552,1.6784666776657104,66.66667175292969,307.0,1.0,WarmUp
339728.125,460434.875,714123.4375,648340.0,714118.875,357615.6875,340391.4375,386782.375,0.138671875,0.95263671875,-0.127685546875,-0.5798339247703552,-1.0375975370407104,1.5258787870407104,66.66667175292969,308.0,1.0,WarmUp
338956.96875,459797.3125,714111.25,647854.5,714106.625,357272.90625,339813.40625,386362.25,0.13818359375,0.9521484375,-0.130126953125,-0.0915527269244194,-1.1901854276657104,1.4953612089157104,66.66667175292969,309.0,1.0,WarmUp
338502.78125,459238.96875,714107.9375,647501.75,714103.5625,357068.6875,339396.15625,385986.125,0.1376953125,0.95458984375,-0.129150390625,0.3662109076976776,-1.2817381620407104,1.4343260526657104,66.66667175292969,310.0,1.0,WarmUp
338976.28125,459378.625,714115.5,647543.3125,714111.0,357274.875,339692.8125,386035.75,0.13720703125,0.954833984375,-0.126953125,0.7324218153953552,-1.4038084745407104,1.2207030057907104,66.66667175292969,311.0,1.0,WarmUp
339706.65625,459869.625,714120.5625,647695.125,714115.5625,357593.59375,340265.0,386301.46875,0.14013671875,0.9560546875,-0.12548828125,1.0375975370407104,-1.5563963651657104,1.0986326932907104,66.66667175292969,312.0,1.0,WarmUp
339669.5625,459884.5625,714109.5,647514.3125,714104.8125,357562.84375,340293.53125,386272.59375,0.1396484375,0.9580078125,-0.126708984375,1.4038084745407104,-1.6479490995407104,1.1291502714157104,66.66667175292969,313.0,1.0,WarmUp
338905.9375,459256.21875,714092.9375,647032.25,714088.5625,357215.5,339714.15625,385851.3125,0.138427734375,0.9580078125,-0.127685546875,1.6479490995407104,-1.7395018339157104,1.1596678495407104,66.66667175292969,314.0,1.0,WarmUp
338447.1875,458696.53125,714090.4375,646683.5,714085.8125,357013.0625,339297.09375,385476.875,0.14111328125,0.957275390625,-0.125732421875,2.044677495956421,-1.7395018339157104,1.0681151151657104,66.66667175292969,315.0,1.0,WarmUp
338909.25,458830.46875,714096.9375,646714.5625,714092.5625,357211.03125,339580.3125,385516.5625,0.142333984375,0.956787109375,-0.12890625,2.319335699081421,-1.6479490995407104,1.0375975370407104,66.66667175292969,316.0,1.0,WarmUp
339631.90625,459320.0625,714099.4375,646861.75,714095.1875,357521.1875,340149.40625,385775.3125,0.142822265625,0.95849609375,-0.128173828125,2.532958745956421,-1.7395018339157104,1.0070799589157104,66.66667175292969,317.0,1.0,WarmUp
339609.03125,459356.96875,714092.875,646703.875,714088.5625,357508.84375,340196.15625,385764.46875,0.144775390625,0.958740234375,-0.130126953125,2.838134527206421,-1.5563963651657104,1.0375975370407104,66.66667175292969,318.0,1.0,WarmUp
338847.625,458739.09375,714078.8125,646230.0625,714074.8125,357167.5625,339622.96875,385352.40625,0.14599609375,0.956787109375,-0.132080078125,3.021239995956421,-1.5258787870407104,1.1596678495407104,66.66667175292969,319.0,1.0,WarmUp
338387.90625,458187.625,714076.875,645881.5,714072.625,356962.65625,339205.71875,384984.21875,0.14892578125,0.956298828125,-0.133544921875,3.234863042831421,-1.4648436307907104,1.1291502714157104,66.66667175292969,320.0,1.0,WarmUp
338853.0,458331.5625,714086.4375,645918.125,714081.875,357162.125,339491.28125,385035.71875,0.15087890625,0.954345703125,-0.136474609375,3.326415777206421,-1.2512205839157104,1.0986326932907104,66.66667175292969,321.0,1.0,WarmUp
339572.71875,458824.03125,714087.375,646060.1875,714083.125,357469.5,340055.96875,385298.3125,0.14990234375,0.95458984375,-0.13525390625,3.631591558456421,-1.1596678495407104,1.1291502714157104,66.66667175292969,322.0,1.0,WarmUp
339549.65625,458860.0625,714078.8125,645895.0625,714074.625,357449.5625,340096.90625,385281.78125,0.1513671875,0.9541015625,-0.136474609375,3.723144292831421,-0.9460448622703552,1.1291502714157104,66.66667175292969,323.0,1.0,WarmUp
338779.25,458231.0,714063.8125,645418.125,714059.6875,357099.875,339518.0,384864.96875,0.153076171875,0.952392578125,-0.137451171875,3.936767339706421,-0.7324218153953552,1.2207030057907104,66.66667175292969,324.0,1.0,WarmUp
338315.84375,457678.09375,714061.3125,645069.9375,714057.0,356890.15625,339095.46875,384496.15625,0.15380859375,0.953857421875,-0.140869140625,4.089354991912842,-0.5798339247703552,1.2512205839157104,66.66667175292969,325.0,1.0,WarmUp
338779.0625,457826.15625,714069.6875,645111.625,714065.125,357091.5,339389.0,384550.4375,0.15380859375,0.95361328125,-0.140625,4.211425304412842,-0.2441406100988388,1.3732908964157104,66.66667175292969,326.0,1.0,WarmUp
339508.34375,458332.71875,714075.125,645269.3125,714070.5625,357409.25,339965.59375,384821.875,0.1533203125,0.955078125,-0.1396484375,4.302978038787842,0.03051757626235485,1.3427733182907104,66.66667175292969,327.0,1.0,WarmUp
339472.9375,458359.09375,714065.0625,645106.5,714061.0,357385.28125,339999.375,384805.15625,0.155517578125,0.9560546875,-0.14404296875,4.364013195037842,0.3356933295726776,1.4953612089157104,66.66667175292969,328.0,1.0,WarmUp
338705.03125,457739.53125,714048.875,644638.125,714044.75,357045.8125,339422.25,384394.0625,0.156005859375,0.958740234375,-0.141357421875,4.394530773162842,0.4577636420726776,1.3732908964157104,66.66667175292969,329.0,1.0,WarmUp
338242.0,457190.5625,714047.875,644298.375,714043.5,356842.65625,338998.8125,384025.6875,0.156494140625,0.9599609375,-0.1416015625,4.394530773162842,0.8239745497703552,1.4648436307907104,66.66667175292969,330.0,1.0,WarmUp
338698.9375,457336.21875,714056.75,644338.5,714052.5,357041.5,339285.90625,384079.96875,0.15625,0.9609375,-0.14404296875,4.333495616912842,1.0375975370407104,1.5869139432907104,66.66667175292969,331.0,1.0,WarmUp
339425.03125,457842.59375,714061.5625,644495.5,714057.4375,357357.28125,339861.40625,384356.40625,0.157470703125,0.960693359375,-0.14404296875,4.241942882537842,1.3427733182907104,1.6174315214157104,66.66667175292969,332.0,1.0,WarmUp
339403.03125,457882.40625,714052.1875,644342.5,714047.9375,357339.59375,339905.0625,384350.5,0.157958984375,0.9609375,-0.146240234375,4.241942882537842,1.6174315214157104,1.7089842557907104,66.66667175292969,333.0,1.0,WarmUp
338638.96875,457272.09375,714039.5,643874.9375,714035.4375,356996.53125,339332.84375,383952.84375,0.154296875,0.9609375,-0.146240234375,4.180907726287842,1.8615721464157104,1.6174315214157104,66.66667175292969,334.0,1.0,WarmUp
338174.125,456724.125,714038.375,643531.4375,714034.375,356787.875,338907.71875,383591.53125,0.154296875,0.957275390625,-0.14599609375,4.119872570037842,1.8920897245407104,1.5869139432907104,66.66667175292969,335.0,1.0,WarmUp
338632.4375,456862.4375,714046.6875,643577.5,714042.5,356989.03125,339189.625,383645.4375,0.152587890625,0.95751953125,-0.1484375,3.967284917831421,2.166747808456421,1.5563963651657104,66.66667175292969,336.0,1.0,WarmUp
339365.5625,457374.75,714051.25,643735.8125,714047.25,357303.28125,339763.15625,383921.28125,0.1533203125,0.956787109375,-0.146240234375,3.784179449081421,2.410888433456421,1.5258787870407104,66.66667175292969,337.0,1.0,WarmUp
339345.625,457419.625,714042.4375,643585.3125,714038.5625,357282.71875,339808.59375,383918.84375,0.152587890625,0.9541015625,-0.150390625,3.784179449081421,2.685546636581421,1.4953612089157104,66.66667175292969,338.0,1.0,WarmUp
338569.40625,456792.4375,714026.6875,643113.75,714023.5,356929.9375,339226.09375,383510.625,0.153076171875,0.95263671875,-0.152587890625,3.845214605331421,2.807616949081421,1.4038084745407104,66.66667175292969,339.0,1.0,WarmUp
338094.65625,456230.34375,714018.5625,642768.1875,714014.875,356715.8125,338793.375,383139.5,0.1513671875,0.95263671875,-0.154296875,3.875732183456421,2.868652105331421,1.4343260526657104,66.66667175292969,340.0,1.0,WarmUp
338557.5,456380.25,714028.6875,642825.75,714024.5625,356926.34375,339083.9375,383205.84375,0.150634765625,0.953857421875,-0.1552734375,3.906249761581421,2.960204839706421,1.3427733182907104,66.66667175292969,341.0,1.0,WarmUp
339293.96875,456892.5625,714033.5,642995.5,714029.75,357249.375,339662.65625,383490.25,0.150390625,0.957763671875,-0.1533203125,3.936767339706421,3.112792730331421,1.2817381620407104,66.66667175292969,342.0,1.0,WarmUp
339284.3125,456940.65625,714025.625,642849.0625,714022.25,357236.59375,339716.65625,383496.40625,0.14990234375,0.959716796875,-0.15234375,3.845214605331421,3.204345464706421,1.3122557401657104,66.66667175292969,343.0,1.0,WarmUp
338530.59375,456343.875,714013.1875,642387.8125,714009.8125,356899.4375,339151.4375,383105.25,0.15087890625,0.9638671875,-0.155029296875,3.662109136581421,3.295898199081421,1.2512205839157104,66.66667175292969,344.0,1.0,WarmUp
338060.125,455799.125,714011.6875,642048.625,714008.25,356692.03125,338732.75,382753.0,0.15087890625,0.96728515625,-0.152587890625,3.448486089706421,3.326415777206421,1.1901854276657104,66.66667175292969,345.0,1.0,WarmUp
338515.03125,455946.5625,714018.125,642093.6875,714015.0,356888.0,339016.0,382813.53125,0.150146484375,0.968505859375,-0.150634765625,3.295898199081421,3.295898199081421,1.3427733182907104,66.66667175292969,346.0,1.0,WarmUp
339256.40625,456470.65625,714021.9375,642268.1875,714019.0,357208.53125,339603.75,383102.75,0.150634765625,0.970458984375,-0.1533203125,2.990722417831421,3.387450933456421,1.2512205839157104,66.66667175292969,347.0,1.0,WarmUp
339244.4375,456525.8125,714014.6875,642128.4375,714012.125,357194.21875,339666.4375,383116.34375,0.1513671875,0.9697265625,-0.151123046875,2.685546636581421,3.387450933456421,1.3427733182907104,66.66667175292969,348.0,1.0,WarmUp
338481.25,455919.375,713999.125,641670.125,713996.5625,356851.25,339100.21875,382726.0625,0.150634765625,0.9697265625,-0.1533203125,2.563476324081421,3.448486089706421,1.3427733182907104,66.66667175292969,349.0,1.0,WarmUp
338014.4375,455379.625,713996.5625,641339.5,713994.0625,356646.875,338681.34375,382373.90625,0.148681640625,0.970458984375,-0.15283203125,2.288818120956421,3.417968511581421,1.4038084745407104,66.66667175292969,350.0,1.0,WarmUp
338475.78125,455531.4375,714004.9375,641395.5,714002.625,356847.21875,338968.96875,382440.96875,0.148193359375,0.9716796875,-0.1513671875,2.166747808456421,3.356933355331421,1.4648436307907104,66.66667175292969,351.0,1.0,WarmUp
339218.59375,456057.25,714015.6875,641577.625,714012.9375,357175.15625,339557.78125,382744.3125,0.14892578125,0.974609375,-0.151123046875,1.8310545682907104,3.356933355331421,1.5563963651657104,66.66667175292969,352.0,1.0,WarmUp
339200.625,456108.90625,714005.5625,641433.0625,714003.0,357154.0625,339607.3125,382752.0,0.148681640625,0.976318359375,-0.150390625,1.4648436307907104,3.265380620956421,1.5869139432907104,66.66667175292969,353.0,1.0,WarmUp
338437.0625,455503.625,713987.625,640975.0,713985.3125,356810.21875,339034.75,382357.28125,0.147705078125,0.97314453125,-0.14990234375,1.2512205839157104,3.234863042831421,1.5563963651657104,66.66667175292969,354.0,1.0,WarmUp
337971.28125,454965.40625,713986.4375,640649.8125,713984.125,356613.875,338619.375,382015.28125,0.147216796875,0.971923828125,-0.150146484375,0.8239745497703552,3.051757574081421,1.5258787870407104,66.66667175292969,355.0,1.0,WarmUp
338444.84375,455133.9375,713998.875,640717.6875,713996.75,356827.28125,338917.5625,382096.46875,0.149169921875,0.972412109375,-0.148681640625,0.6103515028953552,2.929687261581421,1.5869139432907104,66.66667175292969,356.0,1.0,WarmUp
339194.96875,455665.53125,714005.4375,640898.1875,714003.375,357150.3125,339502.53125,382395.0,0.150146484375,0.970947265625,-0.145751953125,0.3051757514476776,2.746581792831421,1.6784666776657104,66.66667175292969,357.0,1.0,WarmUp
339180.9375,455714.90625,713994.0625,640750.625,713992.0,357126.0,339547.25,382401.1875,0.148681640625,0.970458984375,-0.14599609375,0.2136230319738388,2.716064214706421,1.7089842557907104,66.66667175292969,358.0,1.0,WarmUp
338422.6875,455119.4375,713980.0,640295.8125,713977.8125,356786.4375,338981.21875,382021.1875,0.1494140625,0.968994140625,-0.147705078125,-0.0610351525247097,2.563476324081421,1.8005369901657104,66.66667175292969,359.0,1.0,WarmUp
337959.1875,454590.0625,713978.4375,639972.75,713976.375,356586.59375,338564.40625,381680.28125,0.14892578125,0.965576171875,-0.147216796875,-0.3051757514476776,2.410888433456421,1.8615721464157104,66.66667175292969,360.0,1.0,WarmUp
338418.5625,454744.375,713988.3125,640032.5,713986.4375,356790.71875,338848.34375,381751.375,0.14697265625,0.96142578125,-0.1474609375,-0.4272460639476776,2.380370855331421,1.8310545682907104,66.66667175292969,361.0,1.0,WarmUp
339161.0,455270.46875,713992.0,640208.8125,713990.8125,357104.8125,339424.9375,382043.0,0.147216796875,0.958251953125,-0.146728515625,-0.5187987685203552,2.197265386581421,1.6784666776657104,66.66667175292969,362.0,1.0,WarmUp
339159.21875,455339.375,713983.875,640078.5625,713982.1875,357096.03125,339488.3125,382064.71875,0.1474609375,0.95751953125,-0.145751953125,-0.4577636420726776,1.9836424589157104,1.6784666776657104,66.66667175292969,363.0,1.0,WarmUp
338403.0,454754.40625,713973.375,639634.8125,713972.125,356766.40625,338938.84375,381699.6875,0.1484375,0.9580078125,-0.147216796875,-0.3356933295726776,1.8005369901657104,1.6174315214157104,66.66667175292969,364.0,1.0,WarmUp
337940.40625,454221.34375,713971.625,639311.0,713970.875,356565.6875,338523.625,381358.59375,0.148681640625,0.958251953125,-0.146240234375,-0.1831054538488388,1.4953612089157104,1.4953612089157104,66.66667175292969,365.0,1.0,WarmUp
338398.0,454372.0,713980.625,639365.4375,713979.5625,356764.625,338800.875,381424.84375,0.14892578125,0.960693359375,-0.146484375,-0.0915527269244194,1.2207030057907104,1.4648436307907104,66.66667175292969,366.0,1.0,WarmUp
339128.46875,454877.34375,713980.375,639530.1875,713979.5,357063.6875,339357.0625,381696.75,0.149658203125,0.9619140625,-0.145751953125,-0.1220703050494194,1.0681151151657104,1.5258787870407104,66.66667175292969,367.0,1.0,WarmUp
339110.65625,454928.5625,713967.875,639389.0,713966.875,357037.3125,339402.59375,381702.53125,0.15087890625,0.962646484375,-0.142333984375,-0.1220703050494194,0.9155272841453552,1.5258787870407104,66.66667175292969,368.0,1.0,WarmUp
338350.96875,454339.375,713951.6875,638942.0625,713950.875,356699.4375,338839.78125,381325.59375,0.15087890625,0.963134765625,-0.142333984375,-0.1525878757238388,0.7019042372703552,1.4343260526657104,66.66667175292969,369.0,1.0,WarmUp
337872.375,453796.21875,713946.125,638604.9375,713945.75,356487.4375,338406.78125,380971.03125,0.153076171875,0.961181640625,-0.1435546875,-0.1525878757238388,0.5187987685203552,1.3122557401657104,66.66667175292969,370.0,1.0,WarmUp
338341.0625,453962.4375,713960.1875,638679.0625,713959.8125,356696.84375,338698.875,381056.40625,0.154541015625,0.958740234375,-0.142578125,-0.1220703050494194,0.4272460639476776,1.3122557401657104,66.66667175292969,371.0,1.0,WarmUp
339097.34375,454501.09375,713968.1875,638879.5625,713968.3125,357029.875,339287.78125,381367.1875,0.155517578125,0.95654296875,-0.146240234375,-0.0610351525247097,0.3051757514476776,1.1901854276657104,66.66667175292969,372.0,1.0,WarmUp
339101.71875,454581.5625,713960.0,638761.3125,713959.8125,357020.21875,339352.5,381394.375,0.156005859375,0.9560546875,-0.146484375,-0.03051757626235485,0.1831054538488388,1.1596678495407104,66.66667175292969,373.0,1.0,WarmUp
338342.65625,453998.0,713947.3125,638321.5,713946.75,356679.9375,338790.6875,381019.03125,0.156982421875,0.956298828125,-0.146484375,0.0,0.1220703050494194,1.0986326932907104,66.66667175292969,374.0,1.0,WarmUp
337861.46875,453458.1875,713944.5,637994.875,713944.4375,356474.65625,338364.21875,380676.4375,0.159423828125,0.960205078125,-0.14501953125,0.0915527269244194,-0.0610351525247097,0.9765624403953552,66.66667175292969,375.0,1.0,WarmUp
338314.3125,453609.90625,713952.375,638057.875,713952.3125,356669.03125,338639.5,380747.21875,0.159912109375,0.960693359375,-0.141357421875,0.03051757626235485,-0.1525878757238388,0.8850097060203552,66.66667175292969,376.0,1.0,WarmUp
339066.0625,454151.96875,713960.5,638251.75,713960.375,356995.90625,339226.28125,381055.6875,0.15771484375,0.964599609375,-0.14208984375,0.03051757626235485,-0.2136230319738388,0.8544921278953552,66.66667175292969,377.0,1.0,WarmUp
339059.53125,454223.78125,713952.5625,638122.0625,713952.125,356987.6875,339288.40625,381077.9375,0.154296875,0.96533203125,-0.140625,0.03051757626235485,-0.3051757514476776,0.7934569716453552,66.66667175292969,378.0,1.0,WarmUp
338299.9375,453634.75,713935.5,637678.25,713935.875,356651.15625,338727.1875,380700.65625,0.1533203125,0.96533203125,-0.140625,-0.0610351525247097,-0.3662109076976776,0.6713866591453552,66.66667175292969,379.0,1.0,WarmUp
337827.9375,453108.5,713934.0,637358.5,713934.625,356447.125,338304.3125,380362.4375,0.15380859375,0.963134765625,-0.13916015625,-0.2136230319738388,-0.4882812201976776,0.5493163466453552,66.66667175292969,380.0,1.0,WarmUp
338281.25,453260.21875,713943.75,637431.5625,713944.0625,356642.03125,338578.0625,380437.71875,0.154541015625,0.963134765625,-0.138671875,-0.3662109076976776,-0.5187987685203552,0.4272460639476776,66.66667175292969,381.0,1.0,WarmUp
339028.875,453797.28125,713951.25,637620.75,713951.3125,356963.8125,339157.875,380743.03125,0.154052734375,0.964599609375,-0.14013671875,-0.3967284858226776,-0.6713866591453552,0.3051757514476776,66.66667175292969,382.0,1.0,WarmUp
339028.40625,453877.59375,713943.75,637492.6875,713944.375,356957.90625,339224.3125,380769.59375,0.15576171875,0.966064453125,-0.140380859375,-0.4272460639476776,-0.8544921278953552,0.2746581733226776,66.66667175292969,383.0,1.0,WarmUp
338270.25,453299.125,713928.4375,637049.6875,713930.6875,356627.28125,338669.71875,380400.5,0.156005859375,0.9658203125,-0.140625,-0.3356933295726776,-0.8850097060203552,0.3051757514476776,66.66667175292969,384.0,1.0,WarmUp
337783.6875,452761.4375,713923.5,636720.125,713927.6875,356417.71875,338241.09375,380061.125,0.156494140625,0.962158203125,-0.140380859375,-0.4272460639476776,-1.0681151151657104,0.2136230319738388,66.66667175292969,385.0,1.0,WarmUp
338233.21875,452921.375,713934.0625,636788.0,713938.875,356617.90625,338524.4375,380140.0625,0.15625,0.95849609375,-0.140380859375,-0.5798339247703552,-1.0681151151657104,0.1525878757238388,66.66667175292969,386.0,1.0,WarmUp
338975.40625,453455.5,713940.125,636977.875,713945.0625,356936.0,339110.03125,380446.1875,0.155517578125,0.957275390625,-0.13818359375,-0.5798339247703552,-1.0070799589157104,0.0915527269244194,66.66667175292969,387.0,1.0,WarmUp
338977.0,453540.6875,713929.75,636851.8125,713935.5625,356924.90625,339173.15625,380475.0625,0.1552734375,0.9560546875,-0.140625,-0.5493163466453552,-1.1291502714157104,0.0610351525247097,66.66667175292969,388.0,1.0,WarmUp
338208.71875,452950.0,713909.5,636407.6875,713918.875,356582.21875,338608.65625,380099.84375,0.155029296875,0.955078125,-0.142578125,-0.5187987685203552,-1.1901854276657104,-0.1525878757238388,66.66667175292969,389.0,1.0,WarmUp
337722.71875,452412.375,713905.25,636088.3125,713917.5,356375.5,338185.65625,379764.65625,0.1552734375,0.95458984375,-0.140380859375,-0.3662109076976776,-1.2512205839157104,-0.1220703050494194,66.66667175292969,390.0,1.0,WarmUp
338174.125,452573.5,713916.8125,636158.6875,713929.875,356573.28125,338466.65625,379847.53125,0.155029296875,0.954833984375,-0.137939453125,-0.4577636420726776,-1.3122557401657104,-0.0915527269244194,66.66667175292969,391.0,1.0,WarmUp
338927.90625,453119.21875,713925.5625,636360.75,713938.4375,356899.1875,339053.0,380158.3125,0.154052734375,0.95556640625,-0.137451171875,-0.3967284858226776,-1.4343260526657104,-0.2136230319738388,66.66667175292969,392.0,1.0,WarmUp
338926.84375,453194.5,713913.25,636234.75,713926.8125,356887.90625,339117.46875,380181.5625,0.15283203125,0.959716796875,-0.1357421875,-0.2746581733226776,-1.4648436307907104,-0.1831054538488388,66.66667175292969,393.0,1.0,WarmUp
338172.0,452624.8125,713898.6875,635802.4375,713915.1875,356561.65625,338568.15625,379821.5,0.15283203125,0.96044921875,-0.136474609375,-0.3356933295726776,-1.5258787870407104,-0.2746581733226776,66.66667175292969,394.0,1.0,WarmUp
337682.5625,452085.40625,713893.625,635478.1875,713913.5,356353.78125,338134.25,379478.8125,0.15234375,0.96142578125,-0.13916015625,-0.4882812201976776,-1.6174315214157104,-0.2746581733226776,66.66667175292969,395.0,1.0,WarmUp
338134.6875,452246.96875,713903.6875,635551.875,713924.4375,356552.28125,338410.875,379555.78125,0.151611328125,0.96142578125,-0.13818359375,-0.5187987685203552,-1.6784666776657104,-0.1831054538488388,66.66667175292969,396.0,1.0,WarmUp
338880.4375,452787.71875,713911.875,635746.0625,713932.1875,356875.84375,338994.25,379864.0625,0.151123046875,0.96240234375,-0.140625,-0.3967284858226776,-1.6784666776657104,-0.2746581733226776,66.66667175292969,397.0,1.0,WarmUp
338882.875,452877.125,713904.1875,635629.8125,713925.125,356871.625,339068.65625,379905.71875,0.15087890625,0.963134765625,-0.13818359375,-0.4577636420726776,-1.7089842557907104,-0.4882812201976776,66.66667175292969,398.0,1.0,WarmUp
338112.1875,452287.40625,713884.4375,635180.75,713908.6875,356523.03125,338501.8125,379529.34375,0.150634765625,0.964111328125,-0.14013671875,-0.5798339247703552,-1.8310545682907104,-0.5187987685203552,66.66667175292969,399.0,1.0,WarmUp
337623.03125,451752.5625,713877.75,634858.75,713904.75,356308.1875,338069.78125,379185.90625,0.15087890625,0.962646484375,-0.1396484375,-0.6103515028953552,-2.044677495956421,-0.5798339247703552,66.66667175292969,400.0,1.0,WarmUp
338062.0,451904.0,713887.5625,634926.8125,713915.4375,356498.1875,338339.71875,379262.4375,0.1484375,0.959716796875,-0.138671875,-0.5187987685203552,-2.075195074081421,-0.6103515028953552,66.66667175292969,401.0,1.0,WarmUp
338807.75,452440.71875,713894.25,635125.5625,713923.0,356820.59375,338925.15625,379577.0625,0.1474609375,0.957275390625,-0.139404296875,-0.4882812201976776,-2.136230230331421,-0.7629393935203552,66.66667175292969,402.0,1.0,WarmUp
338815.4375,452527.4375,713885.0625,635009.875,713914.9375,356812.1875,338996.5,379616.78125,0.146240234375,0.958740234375,-0.140869140625,-0.4272460639476776,-2.197265386581421,-0.8544921278953552,66.66667175292969,403.0,1.0,WarmUp
338060.0625,451958.03125,713867.25,634569.4375,713899.375,356476.71875,338438.0625,379253.96875,0.1474609375,0.955810546875,-0.14306640625,-0.2136230319738388,-2.441406011581421,-0.9460448622703552,66.66667175292969,404.0,1.0,WarmUp
337568.9375,451426.40625,713863.4375,634244.75,713898.5625,356271.09375,338009.09375,378919.3125,0.145263671875,0.958740234375,-0.144287109375,-0.03051757626235485,-2.471923589706421,-0.8850097060203552,66.66667175292969,405.0,1.0,WarmUp
338003.375,451571.96875,713872.4375,634316.0,713908.6875,356462.34375,338275.6875,378994.5,0.14794921875,0.96044921875,-0.140625,0.03051757626235485,-2.593993902206421,-0.9460448622703552,66.66667175292969,406.0,1.0,WarmUp
338757.59375,452115.65625,713880.25,634520.125,713916.1875,356785.8125,338859.0,379309.375,0.149169921875,0.961181640625,-0.142333984375,0.1220703050494194,-2.716064214706421,-0.9460448622703552,66.66667175292969,407.0,1.0,WarmUp
338771.09375,452213.90625,713868.0,634405.9375,713904.8125,356776.5,338928.5625,379348.5625,0.15380859375,0.962646484375,-0.139892578125,0.3051757514476776,-2.624511480331421,-0.8544921278953552,66.66667175292969,408.0,1.0,WarmUp
338008.71875,451632.5,713849.375,633971.4375,713889.625,356437.03125,338365.90625,378979.125,0.15234375,0.96240234375,-0.14111328125,0.4577636420726776,-2.746581792831421,-0.7629393935203552,66.66667175292969,409.0,1.0,WarmUp
337529.6875,451113.03125,713849.75,633659.8125,713893.0,356241.5,337947.9375,378656.625,0.154296875,0.96337890625,-0.141357421875,0.5493163466453552,-2.716064214706421,-0.6713866591453552,66.66667175292969,410.0,1.0,WarmUp
337971.4375,451272.90625,713859.125,633729.625,713903.75,356440.96875,338222.6875,378737.28125,0.155029296875,0.962890625,-0.14306640625,0.7324218153953552,-2.624511480331421,-0.6103515028953552,66.66667175292969,411.0,1.0,WarmUp
338721.9375,451812.65625,713863.875,633927.875,713908.5625,356761.5,338803.8125,379044.125,0.156005859375,0.963623046875,-0.140869140625,0.8544921278953552,-2.532958745956421,-0.4882812201976776,66.66667175292969,412.0,1.0,WarmUp
338741.5,451912.59375,713858.25,633820.75,713903.6875,356762.1875,338885.71875,379093.90625,0.158203125,0.963134765625,-0.14306640625,0.8850097060203552,-2.502441167831421,-0.2746581733226776,66.66667175292969,413.0,1.0,WarmUp
337985.75,451347.0,713843.375,633384.1875,713891.6875,356425.75,338333.09375,378739.6875,0.158935546875,0.962158203125,-0.140869140625,0.9765624403953552,-2.380370855331421,-0.1831054538488388,66.66667175292969,414.0,1.0,WarmUp
337494.0,450815.125,713840.375,633062.3125,713891.4375,356218.0625,337903.9375,378409.5,0.158447265625,0.9619140625,-0.140380859375,1.0070799589157104,-2.197265386581421,-0.1525878757238388,66.66667175292969,415.0,1.0,WarmUp
337931.03125,450964.15625,713848.4375,633132.75,713900.875,356410.28125,338172.0625,378487.46875,0.159423828125,0.963134765625,-0.13916015625,1.1596678495407104,-1.9836424589157104,-0.03051757626235485,66.66667175292969,416.0,1.0,WarmUp
338691.25,451519.21875,713857.375,633342.1875,713909.625,356741.28125,338763.875,378808.8125,0.15771484375,0.964111328125,-0.140869140625,1.3122557401657104,-1.8005369901657104,-0.0915527269244194,66.66667175292969,417.0,1.0,WarmUp
338705.21875,451615.3125,713846.6875,633232.8125,713899.9375,356742.1875,338842.90625,378852.53125,0.15576171875,0.9658203125,-0.141357421875,1.2207030057907104,-1.6174315214157104,0.1220703050494194,66.66667175292969,418.0,1.0,WarmUp
337948.8125,451050.09375,713832.9375,632804.3125,713889.625,356418.96875,338294.375,378503.375,0.158203125,0.966552734375,-0.1416015625,1.3122557401657104,-1.4953612089157104,0.2136230319738388,66.66667175292969,419.0,1.0,WarmUp
337449.5625,450507.125,713825.875,632481.0625,713886.25,356199.03125,337854.40625,378164.34375,0.1591796875,0.968994140625,-0.1396484375,1.1901854276657104,-1.3427733182907104,0.3356933295726776,66.66667175292969,420.0,1.0,WarmUp
337884.625,450657.5,713835.6875,632551.875,713897.6875,356390.625,338126.125,378245.71875,0.156494140625,0.96826171875,-0.1376953125,1.2207030057907104,-1.0986326932907104,0.3662109076976776,66.66667175292969,421.0,1.0,WarmUp
338639.84375,451209.40625,713842.0625,632756.8125,713903.875,356712.9375,338714.5,378564.1875,0.155517578125,0.968505859375,-0.1376953125,1.0681151151657104,-0.9155272841453552,0.2746581733226776,66.66667175292969,422.0,1.0,WarmUp
338659.875,451310.96875,713831.4375,632654.8125,713893.8125,356711.25,338794.875,378612.09375,0.15625,0.965576171875,-0.14013671875,0.8850097060203552,-0.7324218153953552,0.2136230319738388,66.66667175292969,423.0,1.0,WarmUp
337900.625,450737.96875,713814.25,632224.875,713879.875,356375.875,338239.03125,378256.53125,0.15576171875,0.9638671875,-0.14306640625,0.7629393935203552,-0.7019042372703552,0.1831054538488388,66.66667175292969,424.0,1.0,WarmUp
337402.09375,450199.46875,713811.125,631905.1875,713880.0625,356161.375,337804.78125,377925.1875,0.156494140625,0.96240234375,-0.1416015625,0.7629393935203552,-0.6103515028953552,0.2746581733226776,66.66667175292969,425.0,1.0,WarmUp
337828.5625,450339.5625,713818.75,631970.1875,713888.625,356343.40625,338065.3125,377997.6875,0.15771484375,0.9599609375,-0.142333984375,0.8544921278953552,-0.4577636420726776,0.1831054538488388,66.66667175292969,426.0,1.0,WarmUp
338584.78125,450887.46875,713822.5,632178.6875,713892.5,356665.71875,338649.6875,378310.96875,0.157958984375,0.957275390625,-0.142578125,0.9460448622703552,-0.2441406100988388,0.03051757626235485,66.66667175292969,427.0,1.0,WarmUp
338618.21875,451002.875,713814.6875,632090.3125,713885.875,356680.03125,338744.90625,378373.375,0.159912109375,0.957275390625,-0.146484375,1.0375975370407104,-0.0915527269244194,0.03051757626235485,66.66667175292969,428.0,1.0,WarmUp
337870.15625,450439.78125,713798.6875,631667.375,713873.625,356352.0,338199.4375,378025.3125,0.162109375,0.9609375,-0.146240234375,1.1291502714157104,-0.03051757626235485,0.0,66.66667175292969,429.0,1.0,WarmUp
337376.1875,449905.84375,713794.25,631350.8125,713872.625,356137.78125,337767.34375,377696.3125,0.16162109375,0.961669921875,-0.144775390625,1.3427733182907104,0.0610351525247097,0.0,66.66667175292969,430.0,1.0,WarmUp
337809.53125,450055.0,713804.0625,631425.5625,713883.8125,356326.6875,338033.3125,377777.65625,0.1630859375,0.96240234375,-0.14599609375,1.2512205839157104,0.2136230319738388,-0.1525878757238388,66.66667175292969,431.0,1.0,WarmUp
338560.90625,450598.59375,713809.0625,631632.625,713888.4375,356646.0625,338613.5625,378089.875,0.16357421875,0.961669921875,-0.144775390625,1.2817381620407104,0.3967284858226776,-0.1525878757238388,66.66667175292969,432.0,1.0,WarmUp
338595.5,450713.75,713802.0,631547.0625,713882.375,356657.40625,338702.34375,378144.9375,0.16357421875,0.961669921875,-0.143798828125,1.2207030057907104,0.6408690810203552,-0.1831054538488388,66.66667175292969,433.0,1.0,WarmUp
337846.09375,450154.40625,713783.4375,631128.25,713867.5625,356327.0625,338154.8125,377795.8125,0.164794921875,0.960693359375,-0.14599609375,1.2512205839157104,0.9765624403953552,-0.3051757514476776,66.66667175292969,434.0,1.0,WarmUp
337345.0625,449624.21875,713776.5,630806.5625,713865.0625,356113.1875,337719.21875,377467.4375,0.165771484375,0.959716796875,-0.14453125,1.1901854276657104,1.1596678495407104,-0.3051757514476776,66.66667175292969,435.0,1.0,WarmUp
337762.3125,449761.375,713783.25,630868.25,713872.625,356293.53125,337973.6875,377539.5,0.163818359375,0.955078125,-0.1435546875,1.1901854276657104,1.4038084745407104,-0.4577636420726776,66.66667175292969,436.0,1.0,WarmUp
338517.53125,450314.1875,713788.125,631081.25,713877.3125,356618.15625,338560.625,377858.21875,0.162841796875,0.9541015625,-0.146728515625,1.3122557401657104,1.5563963651657104,-0.3967284858226776,66.66667175292969,437.0,1.0,WarmUp
338545.96875,450431.65625,713780.375,630993.375,713870.6875,356623.96875,338651.46875,377922.15625,0.160888671875,0.955322265625,-0.142822265625,1.4038084745407104,1.6784666776657104,-0.5187987685203552,66.66667175292969,438.0,1.0,WarmUp
337788.4375,449866.875,713765.25,630569.125,713859.5,356287.375,338102.34375,377576.25,0.158935546875,0.958251953125,-0.142578125,1.4648436307907104,1.7395018339157104,-0.5493163466453552,66.66667175292969,439.0,1.0,WarmUp
337285.0625,449328.90625,713758.1875,630244.9375,713857.0,356067.59375,337663.96875,377240.59375,0.1552734375,0.9599609375,-0.140625,1.5258787870407104,1.8310545682907104,-0.6713866591453552,66.66667175292969,440.0,1.0,WarmUp
337704.3125,449468.46875,713762.875,630313.75,713863.625,356245.15625,337916.625,377307.5625,0.155517578125,0.961181640625,-0.1416015625,1.4953612089157104,1.9226073026657104,-0.7019042372703552,66.66667175292969,441.0,1.0,WarmUp
338453.53125,450010.28125,713769.375,630522.6875,713868.8125,356568.0,338499.84375,377624.96875,0.156005859375,0.962158203125,-0.14013671875,1.4953612089157104,1.8920897245407104,-0.7019042372703552,66.66667175292969,442.0,1.0,WarmUp
338482.3125,450130.4375,713759.625,630425.4375,713860.5,356572.9375,338588.1875,377685.125,0.15380859375,0.959716796875,-0.142822265625,1.4343260526657104,1.8005369901657104,-0.7629393935203552,66.66667175292969,443.0,1.0,WarmUp
337724.40625,449571.03125,713740.875,630000.6875,713846.875,356241.84375,338040.1875,377339.84375,0.1533203125,0.95947265625,-0.14208984375,1.4953612089157104,1.7700194120407104,-0.8544921278953552,66.66667175292969,444.0,1.0,WarmUp
337208.34375,449021.4375,713730.5625,629676.1875,713841.625,356020.65625,337593.34375,377001.15625,0.15234375,0.9609375,-0.142333984375,1.5258787870407104,1.6784666776657104,-0.8239745497703552,66.66667175292969,445.0,1.0,WarmUp
337632.40625,449171.8125,713738.5,629753.25,713851.25,356212.25,337859.875,377086.8125,0.152587890625,0.961669921875,-0.142578125,1.5869139432907104,1.5869139432907104,-0.9155272841453552,66.66667175292969,446.0,1.0,WarmUp
338389.59375,449729.625,713749.1875,629972.25,713861.3125,356541.0,338453.625,377414.59375,0.150146484375,0.962890625,-0.14111328125,1.6479490995407104,1.4343260526657104,-1.0986326932907104,66.66667175292969,447.0,1.0,WarmUp
338414.71875,449840.59375,713739.625,629882.625,713853.0,356542.15625,338542.75,377469.5625,0.150634765625,0.963623046875,-0.14111328125,1.5563963651657104,1.2207030057907104,-1.1596678495407104,66.66667175292969,448.0,1.0,WarmUp
337659.78125,449279.28125,713720.5625,629465.3125,713839.75,356211.53125,337997.90625,377126.53125,0.150146484375,0.964599609375,-0.142822265625,1.4953612089157104,1.0986326932907104,-1.0375975370407104,66.66667175292969,449.0,1.0,WarmUp
337148.625,448737.5,713710.1875,629142.0625,713835.875,355989.0,337549.1875,376787.9375,0.151123046875,0.965576171875,-0.142822265625,1.6479490995407104,0.9460448622703552,-1.0375975370407104,66.66667175292969,450.0,1.0,WarmUp
337577.25,448888.125,713717.8125,629220.4375,713845.9375,356186.0625,337811.125,376870.1875,0.15087890625,0.96484375,-0.140869140625,1.4953612089157104,0.8239745497703552,-1.0070799589157104,66.66667175292969,451.0,1.0,WarmUp
338327.03125,449426.625,713726.75,629435.0625,713854.125,356509.09375,338394.0625,377188.5625,0.149658203125,0.965087890625,-0.142578125,1.4648436307907104,0.6408690810203552,-0.9460448622703552,66.66667175292969,452.0,1.0,WarmUp
338361.0,449539.8125,713718.25,629354.8125,713847.5,356516.5,338487.9375,377252.59375,0.1494140625,0.964599609375,-0.144775390625,1.3732908964157104,0.4577636420726776,-0.9155272841453552,66.66667175292969,453.0,1.0,WarmUp
337618.09375,448997.03125,713694.75,628943.1875,713834.375,356191.25,337946.21875,376915.59375,0.1494140625,0.962890625,-0.144775390625,1.2512205839157104,0.2136230319738388,-0.9155272841453552,66.66667175292969,454.0,1.0,WarmUp
337115.28125,448469.09375,713671.0,628629.9375,713833.3125,355975.78125,337503.65625,376590.15625,0.1484375,0.962158203125,-0.144287109375,1.2817381620407104,0.1220703050494194,-0.7629393935203552,66.66667175292969,455.0,1.0,WarmUp
337541.21875,448621.25,713670.125,628711.125,713846.4375,356164.25,337764.8125,376680.03125,0.148681640625,0.958984375,-0.14111328125,1.3122557401657104,-0.0915527269244194,-0.7629393935203552,66.66667175292969,456.0,1.0,WarmUp
338287.0625,449161.375,713686.6875,628923.5,713850.625,356479.3125,338340.0625,376995.4375,0.1484375,0.955322265625,-0.139892578125,1.1901854276657104,-0.3967284858226776,-0.7934569716453552,66.66667175292969,457.0,1.0,WarmUp
338320.75,449276.0,713559.6875,628839.625,713840.0,356479.5,338423.84375,377052.03125,0.14892578125,0.952392578125,-0.140869140625,1.1291502714157104,-0.5798339247703552,-0.6103515028953552,66.66667175292969,458.0,1.0,WarmUp
337570.71875,448718.09375,712614.5,628424.125,713826.625,356146.46875,337874.625,376707.75,0.151611328125,0.951904296875,-0.139892578125,1.0986326932907104,-0.7019042372703552,-0.6713866591453552,66.66667175292969,459.0,1.0,WarmUp
337069.0625,448189.96875,711233.25,628116.875,713825.875,355933.5625,337440.71875,376385.15625,0.15234375,0.949951171875,-0.142578125,1.0986326932907104,-0.8239745497703552,-0.6713866591453552,66.66667175292969,460.0,1.0,WarmUp
337494.625,448336.9375,710771.0,628197.125,713837.6875,356122.75,337698.65625,376470.71875,0.1533203125,0.951416015625,-0.148193359375,1.1901854276657104,-0.8850097060203552,-0.7019042372703552,66.66667175292969,461.0,1.0,WarmUp
338249.21875,448880.625,711034.9375,628414.0625,713842.6875,356444.71875,338285.09375,376792.125,0.154052734375,0.95458984375,-0.1513671875,1.3427733182907104,-1.0681151151657104,-0.7019042372703552,66.66667175292969,462.0,1.0,WarmUp
338295.90625,449015.0,710709.4375,628335.0,713836.8125,356458.21875,338386.375,376860.1875,0.155029296875,0.9580078125,-0.153076171875,1.5258787870407104,-1.0070799589157104,-0.7324218153953552,66.66667175292969,463.0,1.0,WarmUp
337552.5625,448470.25,709264.3125,627925.8125,713826.5,356133.75,337848.40625,376526.78125,0.15576171875,0.9638671875,-0.15234375,1.5258787870407104,-1.1291502714157104,-0.8850097060203552,66.66667175292969,464.0,1.0,WarmUp
337042.78125,447931.46875,707765.0,627615.3125,713823.0,355908.28125,337398.15625,376192.21875,0.15478515625,0.96923828125,-0.14990234375,1.6174315214157104,-1.1901854276657104,-0.9155272841453552,66.66667175292969,465.0,1.0,WarmUp
337461.75,448072.65625,707328.25,627696.9375,713831.0,356090.75,337650.46875,376269.90625,0.153564453125,0.9736328125,-0.145263671875,1.4953612089157104,-1.3427733182907104,-0.9155272841453552,66.66667175292969,466.0,1.0,WarmUp
338222.78125,448627.25,707599.75,627925.5,713837.9375,356425.5,338245.3125,376600.8125,0.15185546875,0.9755859375,-0.14306640625,1.1596678495407104,-1.3732908964157104,-0.9765624403953552,66.66667175292969,467.0,1.0,WarmUp
338268.53125,448759.84375,707304.625,627849.4375,713830.625,356440.5,338346.0625,376669.65625,0.1513671875,0.9765625,-0.146728515625,0.9765624403953552,-1.4953612089157104,-0.9765624403953552,66.66667175292969,468.0,1.0,WarmUp
337522.96875,448214.375,705996.4375,627440.875,713815.5,356113.1875,337806.125,376334.5625,0.15185546875,0.974609375,-0.145263671875,0.7324218153953552,-1.5563963651657104,-1.0375975370407104,66.66667175292969,469.0,1.0,WarmUp
337015.59375,447690.09375,704657.8125,627135.6875,713814.0625,355897.375,337369.28125,376012.96875,0.152587890625,0.97021484375,-0.147216796875,0.6713866591453552,-1.8005369901657104,-1.0681151151657104,66.66667175292969,470.0,1.0,WarmUp
337433.03125,447838.59375,704280.6875,627220.9375,713826.9375,356082.25,337632.15625,376102.0,0.15283203125,0.969482421875,-0.142822265625,0.5493163466453552,-1.9531248807907104,-1.1291502714157104,66.66667175292969,471.0,1.0,WarmUp
338188.4375,448387.28125,704541.25,627445.875,713832.0625,356403.40625,338221.15625,376426.5625,0.15185546875,0.968505859375,-0.14404296875,0.4577636420726776,-2.075195074081421,-1.2207030057907104,66.66667175292969,472.0,1.0,WarmUp
338239.65625,448524.53125,704282.3125,627374.6875,713827.25,356418.0625,338328.625,376503.625,0.15283203125,0.969482421875,-0.1435546875,0.3967284858226776,-2.227782964706421,-1.3427733182907104,66.66667175292969,473.0,1.0,WarmUp
337495.8125,447979.59375,703044.5625,626970.125,713815.3125,356089.3125,337786.5625,376166.8125,0.15087890625,0.967041015625,-0.143310546875,0.3051757514476776,-2.288818120956421,-1.3122557401657104,66.66667175292969,474.0,1.0,WarmUp
336987.625,447452.25,701757.0,626660.9375,713814.25,355875.0,337353.1875,375845.75,0.151611328125,0.96826171875,-0.140869140625,0.3356933295726776,-2.441406011581421,-1.4343260526657104,66.66667175292969,475.0,1.0,WarmUp
337399.78125,447587.34375,701381.5625,626733.0,713816.75,356048.03125,337597.625,375913.25,0.15185546875,0.96728515625,-0.143798828125,0.3662109076976776,-2.502441167831421,-1.4648436307907104,66.66667175292969,476.0,1.0,WarmUp
338154.28125,448130.875,701648.125,626959.375,713821.9375,356374.875,338180.125,376233.0,0.155517578125,0.9658203125,-0.142333984375,0.3051757514476776,-2.532958745956421,-1.6479490995407104,66.66667175292969,477.0,1.0,WarmUp
338218.9375,448291.78125,701427.375,626900.9375,713821.9375,356406.90625,338303.875,376330.15625,0.1552734375,0.9619140625,-0.141845703125,0.2136230319738388,-2.502441167831421,-1.6784666776657104,66.66667175292969,478.0,1.0,WarmUp
337475.5,447752.9375,700216.375,626492.5,713807.5625,356076.8125,337764.1875,375997.5,0.155029296875,0.9619140625,-0.14404296875,0.0915527269244194,-2.563476324081421,-1.8310545682907104,66.66667175292969,479.0,1.0,WarmUp
336963.03125,447225.0,698939.625,626187.625,713804.625,355859.71875,337324.5,375670.34375,0.15478515625,0.95703125,-0.14697265625,0.1220703050494194,-2.624511480331421,-1.8615721464157104,66.66667175292969,480.0,1.0,WarmUp
337382.0625,447376.71875,698594.5,626275.8125,713817.75,356049.4375,337584.3125,375757.53125,0.15576171875,0.953125,-0.1484375,0.2136230319738388,-2.563476324081421,-1.8615721464157104,66.66667175292969,481.0,1.0,WarmUp
338145.0,447940.25,698888.375,626507.0625,713825.4375,356379.625,338177.34375,376091.46875,0.1533203125,0.950927734375,-0.1474609375,0.3967284858226776,-2.532958745956421,-1.8310545682907104,66.66667175292969,482.0,1.0,WarmUp
338200.15625,448082.65625,698662.25,626441.9375,713819.875,356398.65625,338285.0,376174.15625,0.152587890625,0.947509765625,-0.148681640625,0.5493163466453552,-2.471923589706421,-1.9226073026657104,66.66667175292969,483.0,1.0,WarmUp
337458.4375,447541.125,697460.5,626038.125,713806.3125,356067.25,337742.125,375841.65625,0.153564453125,0.947998046875,-0.14990234375,0.8850097060203552,-2.410888433456421,-1.9226073026657104,66.66667175292969,484.0,1.0,WarmUp
336941.5625,447007.1875,696191.25,625722.875,713804.25,355842.65625,337295.25,375511.28125,0.153076171875,0.951416015625,-0.14794921875,1.1291502714157104,-2.471923589706421,-1.9531248807907104,66.66667175292969,485.0,1.0,WarmUp
337353.1875,447156.78125,695850.0,625804.25,713813.875,356025.75,337547.375,375592.375,0.155029296875,0.952392578125,-0.146484375,1.3732908964157104,-2.410888433456421,-1.7700194120407104,66.66667175292969,486.0,1.0,WarmUp
338102.96875,447710.5625,696147.1875,626026.6875,713821.0625,356351.90625,338132.125,375918.625,0.155029296875,0.953125,-0.145751953125,1.5258787870407104,-2.349853277206421,-1.6174315214157104,66.66667175292969,487.0,1.0,WarmUp
338152.125,447845.21875,695933.25,625961.6875,713815.4375,356371.125,338240.46875,376001.0625,0.15673828125,0.95556640625,-0.14599609375,1.6174315214157104,-2.258300542831421,-1.6784666776657104,66.66667175292969,488.0,1.0,WarmUp
337408.4375,447301.15625,694741.6875,625554.0,713802.875,356034.25,337694.28125,375664.53125,0.15673828125,0.95947265625,-0.147705078125,1.5869139432907104,-2.227782964706421,-1.5563963651657104,66.66667175292969,489.0,1.0,WarmUp
336901.59375,446774.1875,693492.25,625251.1875,713801.3125,355817.53125,337253.96875,375345.09375,0.15869140625,0.9638671875,-0.15234375,1.5869139432907104,-2.166747808456421,-1.5258787870407104,66.66667175292969,490.0,1.0,WarmUp
337315.375,446921.0,693161.875,625335.75,713811.125,356006.0,337508.21875,375430.03125,0.159423828125,0.97216796875,-0.1484375,1.5563963651657104,-1.9836424589157104,-1.5563963651657104,66.66667175292969,491.0,1.0,WarmUp
338069.96875,447472.90625,693463.0,625559.9375,713816.875,356333.84375,338093.3125,375754.375,0.158203125,0.97509765625,-0.146484375,1.4343260526657104,-1.9226073026657104,-1.5258787870407104,66.66667175292969,492.0,1.0,WarmUp
338127.71875,447619.8125,693263.875,625495.4375,713813.1875,356354.25,338205.5,375839.3125,0.159423828125,0.97802734375,-0.141845703125,1.4038084745407104,-1.8310545682907104,-1.5869139432907104,66.66667175292969,493.0,1.0,WarmUp
337384.75,447079.25,692086.75,625092.125,713799.4375,356020.5625,337660.03125,375504.9375,0.157958984375,0.978271484375,-0.140380859375,1.1291502714157104,-1.6479490995407104,-1.5563963651657104,66.66667175292969,494.0,1.0,WarmUp
336873.15625,446546.375,690841.125,624791.8125,713797.0,355798.84375,337210.0625,375177.09375,0.159423828125,0.9794921875,-0.140625,0.8850097060203552,-1.4953612089157104,-1.5869139432907104,66.66667175292969,495.0,1.0,WarmUp
337285.15625,446686.3125,690519.6875,624881.875,713807.4375,355982.21875,337460.5625,375260.0625,0.157470703125,0.97802734375,-0.142333984375,0.7324218153953552,-1.4038084745407104,-1.5258787870407104,66.66667175292969,496.0,1.0,WarmUp
338043.40625,447243.0625,690845.4375,625113.875,713817.8125,356312.125,338052.28125,375594.53125,0.154052734375,0.9765625,-0.140869140625,0.5493163466453552,-1.2512205839157104,-1.4953612089157104,66.66667175292969,497.0,1.0,WarmUp
338100.09375,447387.625,690657.375,625048.25,713810.5625,356330.71875,338163.40625,375678.5625,0.151611328125,0.9716796875,-0.140625,0.4272460639476776,-1.2207030057907104,-1.5258787870407104,66.66667175292969,498.0,1.0,WarmUp
337356.0625,446840.71875,689490.5625,624641.8125,713793.3125,356000.375,337622.125,375341.40625,0.15283203125,0.968505859375,-0.143798828125,0.3967284858226776,-1.1291502714157104,-1.6479490995407104,66.66667175292969,499.0,1.0,WarmUp
336836.15625,446295.15625,688247.625,624334.75,713788.3125,355774.4375,337170.34375,375010.15625,0.150634765625,0.964111328125,-0.142333984375,0.4577636420726776,-1.0375975370407104,-1.7395018339157104,66.66667175292969,500.0,1.0,WarmUp
337251.0,446445.1875,687936.75,624420.75,713800.125,355958.875,337422.5,375097.6875,0.1484375,0.964111328125,-0.143798828125,0.4882812201976776,-1.0681151151657104,-1.7700194120407104,66.66667175292969,501.0,1.0,WarmUp
338008.71875,447006.65625,688272.9375,624648.0625,713808.1875,356292.53125,338018.28125,375436.28125,0.148193359375,0.961181640625,-0.145263671875,0.6713866591453552,-1.0375975370407104,-1.9836424589157104,66.66667175292969,502.0,1.0,WarmUp
338070.875,447156.15625,688067.8125,624588.25,713801.8125,356322.84375,338140.15625,375528.625,0.1474609375,0.957763671875,-0.146484375,0.8239745497703552,-1.1291502714157104,-2.136230230331421,66.66667175292969,503.0,1.0,WarmUp
337331.8125,446618.0,686744.6875,624182.875,713789.75,355995.71875,337607.375,375203.03125,0.145263671875,0.95751953125,-0.146240234375,1.0681151151657104,-1.1596678495407104,-2.319335699081421,66.66667175292969,504.0,1.0,WarmUp
336803.96875,446072.25,685667.125,623851.6875,713786.75,355758.78125,337146.5625,374866.75,0.1455078125,0.9541015625,-0.14404296875,1.1901854276657104,-1.1596678495407104,-2.410888433456421,66.66667175292969,505.0,1.0,WarmUp
337209.53125,446217.09375,685669.375,623921.8125,713797.625,355940.71875,337390.46875,374949.28125,0.146728515625,0.953125,-0.144287109375,1.3122557401657104,-1.1901854276657104,-2.532958745956421,66.66667175292969,506.0,1.0,WarmUp
337967.96875,446780.09375,686314.25,624148.25,713807.1875,356271.625,337982.4375,375284.46875,0.14501953125,0.950439453125,-0.1455078125,1.5258787870407104,-1.1901854276657104,-2.685546636581421,66.66667175292969,507.0,1.0,WarmUp
338028.40625,446930.40625,686445.0,624079.875,713802.0,356293.09375,338097.25,375371.46875,0.14404296875,0.95068359375,-0.14990234375,1.8005369901657104,-1.3122557401657104,-2.838134527206421,66.66667175292969,508.0,1.0,WarmUp
337296.78125,446400.03125,685601.0625,623684.3125,713788.9375,355970.21875,337564.28125,375047.1875,0.144775390625,0.948974609375,-0.151123046875,2.136230230331421,-1.2817381620407104,-2.990722417831421,66.66667175292969,509.0,1.0,WarmUp
336768.28125,445852.59375,684655.625,623371.75,713783.4375,355731.6875,337099.28125,374707.4375,0.1455078125,0.94775390625,-0.14794921875,2.471923589706421,-1.2207030057907104,-3.143310308456421,66.66667175292969,510.0,1.0,WarmUp
337166.34375,445980.0,684624.125,623450.875,713791.1875,355905.3125,337336.65625,374780.03125,0.146240234375,0.94775390625,-0.147705078125,2.655029058456421,-1.2207030057907104,-3.173827886581421,66.66667175292969,511.0,1.0,WarmUp
337925.03125,446532.875,685243.5625,623684.9375,713799.75,356234.625,337928.0,375109.9375,0.147216796875,0.949462890625,-0.149169921875,2.960204839706421,-1.1901854276657104,-3.234863042831421,66.66667175292969,512.0,1.0,WarmUp
337986.46875,446678.4375,685355.375,623621.1875,713794.4375,356251.25,338042.15625,375194.25,0.14794921875,0.9501953125,-0.1513671875,3.295898199081421,-1.0375975370407104,-3.295898199081421,66.66667175292969,513.0,1.0,WarmUp
337260.3125,446158.0,684501.4375,623227.8125,713782.25,355931.96875,337515.65625,374874.28125,0.150390625,0.9501953125,-0.153076171875,3.540038824081421,-0.8850097060203552,-3.326415777206421,66.66667175292969,514.0,1.0,WarmUp
336741.84375,445632.21875,683565.8125,622928.125,713782.8125,355711.65625,337074.0625,374558.40625,0.14892578125,0.9521484375,-0.154296875,3.662109136581421,-0.8544921278953552,-3.265380620956421,66.66667175292969,515.0,1.0,WarmUp
337131.90625,445758.4375,683518.0625,623005.625,713790.3125,355883.25,337303.75,374628.5625,0.1494140625,0.954833984375,-0.15576171875,3.753661870956421,-0.6408690810203552,-3.204345464706421,66.66667175292969,516.0,1.0,WarmUp
337881.6875,446305.875,684113.6875,623237.5625,713792.625,356204.375,337883.1875,374949.90625,0.149169921875,0.955078125,-0.156494140625,3.845214605331421,-0.4577636420726776,-3.143310308456421,66.66667175292969,517.0,1.0,WarmUp
337950.96875,446460.8125,684220.4375,623185.25,713787.875,356230.21875,338005.6875,375042.53125,0.150634765625,0.95361328125,-0.156494140625,4.119872570037842,-0.2746581733226776,-3.051757574081421,66.66667175292969,518.0,1.0,WarmUp
337225.96875,445946.375,683368.25,622799.125,713779.375,355919.09375,337487.5,374735.40625,0.1484375,0.95458984375,-0.1552734375,4.028319835662842,-0.1220703050494194,-3.082275152206421,66.66667175292969,519.0,1.0,WarmUp
336699.90625,445408.96875,682408.1875,622488.875,713774.375,355692.71875,337031.96875,374407.03125,0.148681640625,0.952392578125,-0.1572265625,4.150390148162842,0.1525878757238388,-2.960204839706421,66.66667175292969,520.0,1.0,WarmUp
337098.3125,445544.3125,682356.0625,622571.6875,713783.6875,355871.4375,337272.46875,374486.40625,0.14892578125,0.955322265625,-0.15673828125,4.211425304412842,0.3662109076976776,-2.899169683456421,66.66667175292969,521.0,1.0,WarmUp
337853.25,446102.65625,682954.875,622806.1875,713792.1875,356202.0625,337861.125,374820.34375,0.1484375,0.95751953125,-0.158203125,4.272460460662842,0.4577636420726776,-2.899169683456421,66.66667175292969,522.0,1.0,WarmUp
337916.46875,446254.9375,683056.1875,622750.375,713786.375,356224.59375,337982.34375,374910.84375,0.147705078125,0.9580078125,-0.15966796875,4.272460460662842,0.7019042372703552,-2.899169683456421,66.66667175292969,523.0,1.0,WarmUp
337192.09375,445736.375,682188.75,622360.6875,713772.875,355899.34375,337457.4375,374593.0,0.14697265625,0.960205078125,-0.159912109375,4.333495616912842,0.8850097060203552,-2.777099370956421,66.66667175292969,524.0,1.0,WarmUp
336673.78125,445206.53125,681231.0625,622061.0625,713771.3125,355681.28125,337011.3125,374275.78125,0.1435546875,0.961669921875,-0.1630859375,4.364013195037842,1.0375975370407104,-2.777099370956421,66.66667175292969,525.0,1.0,WarmUp
