EEG 1,EEG 2,EEG 3,EEG 4,EEG 5,EEG 6,EEG 7,EEG 8,Accelerometer X,Accelerometer Y,Accelerometer Z,Gyroscope X,Gyroscope Y,Gyroscope Z,Battery Level,Counter,Validation Indicator,State
750000.0625,750000.0625,750000.0625,676607.25,-334477.6875,750000.0625,746653.0625,750000.0625,0.02294921875,0.96826171875,-0.03369140625,0.0,0.0,0.0,46.66667175292969,1.0,1.0,WarmUp
697197.0625,329870.71875,750000.0625,750000.0625,-291413.9375,750000.0625,325193.9375,750000.0625,0.017578125,0.9794921875,-0.04345703125,0.0,0.0,0.0,46.66667175292969,2.0,1.0,WarmUp
563422.125,141809.484375,750000.0625,750000.0625,-225883.875,750000.0625,366692.46875,750000.0625,0.018310546875,0.9833984375,-0.046142578125,0.0,0.0,0.0,46.66667175292969,3.0,1.0,WarmUp
529992.6875,217226.59375,603876.5,735641.125,-90371.953125,689142.875,286119.875,750000.0625,0.019775390625,0.986328125,-0.05126953125,0.0,0.0,0.0,46.66667175292969,4.0,1.0,WarmUp
483326.53125,417818.75,750000.0625,690416.5625,95148.6953125,625318.0625,93856.6796875,750000.0625,0.021728515625,0.984375,-0.05078125,0.0,0.0,0.0,46.66667175292969,5.0,1.0,WarmUp
358976.90625,706027.625,750000.0625,743388.3125,238797.375,465581.21875,134850.40625,750000.0625,0.023193359375,0.98388671875,-0.052490234375,0.0,0.0,0.0,46.66667175292969,6.0,1.0,WarmUp
410912.15625,750000.0625,750000.0625,750000.0625,324941.90625,72348.3984375,386695.21875,750000.0625,0.02197265625,0.984619140625,-0.053955078125,-3.570556402206421,-5.096435070037842,-6.286620616912842,46.66667175292969,7.0,1.0,WarmUp
728929.125,750000.0625,750000.0625,750000.0625,389651.625,591401.625,401048.0625,750000.0625,0.021728515625,0.98388671875,-0.055419921875,-1.1596678495407104,-2.166747808456421,-1.7395018339157104,46.66667175292969,8.0,1.0,WarmUp
750000.0625,750000.0625,750000.0625,750000.0625,609181.5625,750000.0625,552019.4375,750000.0625,0.023681640625,0.982421875,-0.05419921875,-0.4577636420726776,-1.3732908964157104,-0.5798339247703552,46.66667175292969,9.0,1.0,WarmUp
750000.0625,750000.0625,750000.0625,750000.0625,678812.875,750000.0625,750000.0625,750000.0625,0.021240234375,0.98193359375,-0.057373046875,-0.1831054538488388,-1.1291502714157104,-0.03051757626235485,46.66667175292969,10.0,1.0,WarmUp
750000.0625,750000.0625,750000.0625,750000.0625,750000.0625,750000.0625,750000.0625,750000.0625,0.018310546875,0.98046875,-0.0546875,-0.03051757626235485,-1.0375975370407104,0.0915527269244194,46.66667175292969,11.0,1.0,WarmUp
750000.0625,750000.0625,750000.0625,750000.0625,750000.0625,750000.0625,750000.0625,694722.375,0.02001953125,0.979248046875,-0.054931640625,-0.03051757626235485,-0.9155272841453552,0.2136230319738388,46.66667175292969,12.0,1.0,WarmUp
750000.0625,750000.0625,750000.0625,750000.0625,750000.0625,750000.0625,750000.0625,564312.8125,0.01953125,0.979248046875,-0.05517578125,0.0915527269244194,-0.7934569716453552,0.2136230319738388,46.66667175292969,13.0,1.0,WarmUp
750000.0625,750000.0625,750000.0625,750000.0625,750000.0625,750000.0625,750000.0625,470986.6875,0.0205078125,0.982421875,-0.054443359375,0.1525878757238388,-0.6713866591453552,0.1831054538488388,46.66667175292969,14.0,1.0,WarmUp
750000.0625,750000.0625,750000.0625,750000.0625,750000.0625,750000.0625,750000.0625,397997.25,0.02001953125,0.983154296875,-0.05322265625,0.1525878757238388,-0.6713866591453552,0.2441406100988388,46.66667175292969,15.0,1.0,WarmUp
750000.0625,742274.5625,750000.0625,750000.0625,750000.0625,750000.0625,750000.0625,339792.5,0.02099609375,0.984619140625,-0.057861328125,0.1831054538488388,-0.6103515028953552,0.1831054538488388,46.66667175292969,16.0,1.0,WarmUp
671959.125,634564.625,750000.0625,750000.0625,750000.0625,651995.875,750000.0625,294056.6875,0.021240234375,0.985107421875,-0.055908203125,0.1220703050494194,-0.5493163466453552,0.0915527269244194,46.66667175292969,17.0,1.0,WarmUp
590740.625,558205.875,750000.0625,750000.0625,750000.0625,575145.75,750000.0625,262562.375,0.020263671875,0.988037109375,-0.054931640625,0.0915527269244194,-0.3662109076976776,0.1831054538488388,46.66667175292969,18.0,1.0,WarmUp
558463.0,527624.1875,750000.0625,750000.0625,750000.0625,545286.8125,750000.0625,251447.84375,0.01953125,0.987060546875,-0.054443359375,0.1525878757238388,-0.3967284858226776,0.1525878757238388,46.66667175292969,19.0,1.0,WarmUp
540268.875,509933.875,750000.0625,750000.0625,750000.0625,528450.1875,750000.0625,244935.703125,0.01904296875,0.987548828125,-0.0537109375,0.0610351525247097,-0.3662109076976776,0.1525878757238388,46.66667175292969,20.0,1.0,WarmUp
523926.0625,494266.65625,750000.0625,750000.0625,750000.0625,513147.71875,750000.0625,238707.96875,0.017333984375,0.98583984375,-0.05517578125,0.03051757626235485,-0.2746581733226776,-0.0610351525247097,46.66667175292969,21.0,1.0,WarmUp
509218.53125,480690.5625,750000.0625,750000.0625,750000.0625,499641.34375,750000.0625,234087.5,0.0146484375,0.986572265625,-0.05517578125,0.0610351525247097,-0.3967284858226776,-0.1831054538488388,46.66667175292969,22.0,1.0,WarmUp
495694.3125,468325.3125,750000.0625,750000.0625,750000.0625,487449.90625,731299.75,230798.21875,0.01611328125,0.98583984375,-0.053955078125,0.03051757626235485,-0.3051757514476776,-0.4272460639476776,46.66667175292969,23.0,1.0,WarmUp
483023.90625,456322.6875,750000.0625,750000.0625,750000.0625,475834.875,713543.6875,227323.953125,0.01513671875,0.987548828125,-0.052978515625,0.0,-0.2746581733226776,-0.5187987685203552,46.66667175292969,24.0,1.0,WarmUp
471179.34375,444767.09375,750000.0625,750000.0625,750000.0625,464587.03125,696570.125,222910.65625,0.01611328125,0.990966796875,-0.051513671875,-0.0915527269244194,-0.2136230319738388,-0.5798339247703552,46.66667175292969,25.0,1.0,WarmUp
460353.5,434388.125,750000.0625,750000.0625,750000.0625,454211.25,680785.8125,218581.390625,0.01806640625,0.990966796875,-0.0537109375,-0.1831054538488388,-0.3051757514476776,-0.7629393935203552,46.66667175292969,26.0,1.0,WarmUp
450528.21875,425398.5,750000.0625,750000.0625,750000.0625,445025.65625,666633.9375,215512.765625,0.016845703125,0.990478515625,-0.05419921875,-0.2136230319738388,-0.3356933295726776,-0.7629393935203552,46.66667175292969,27.0,1.0,WarmUp
441400.125,417143.28125,750000.0625,750000.0625,750000.0625,436688.375,653901.125,213518.890625,0.01513671875,0.98974609375,-0.055419921875,-0.2746581733226776,-0.4577636420726776,-0.8544921278953552,46.66667175292969,28.0,1.0,WarmUp
432716.28125,408948.0625,750000.0625,750000.0625,750000.0625,428650.59375,641911.625,211409.96875,0.015869140625,0.98828125,-0.05419921875,-0.4272460639476776,-0.2136230319738388,-0.7629393935203552,46.66667175292969,29.0,1.0,WarmUp
424489.40625,400850.46875,750000.0625,750000.0625,750000.0625,420695.4375,630198.875,208365.296875,0.01708984375,0.98779296875,-0.052734375,-0.4882812201976776,-0.3356933295726776,-0.7934569716453552,46.66667175292969,30.0,1.0,WarmUp
416935.96875,393575.875,750000.0625,750000.0625,750000.0625,413298.15625,619173.6875,205285.859375,0.0166015625,0.9873046875,-0.0546875,-0.5187987685203552,-0.2746581733226776,-0.7019042372703552,46.66667175292969,31.0,1.0,WarmUp
410066.375,387351.5625,750000.0625,750000.0625,750000.0625,406795.875,609303.5625,203294.84375,0.018798828125,0.986083984375,-0.054931640625,-0.5493163466453552,-0.2136230319738388,-0.6408690810203552,46.66667175292969,32.0,1.0,WarmUp
403640.0625,381609.65625,750000.0625,750000.0625,750000.0625,400920.9375,600453.375,202253.609375,0.0166015625,0.98583984375,-0.053955078125,-0.5493163466453552,-0.2746581733226776,-0.6103515028953552,46.66667175292969,33.0,1.0,WarmUp
397425.375,375707.625,750000.0625,750000.0625,750000.0625,395113.40625,591966.5625,200942.375,0.0166015625,0.98583984375,-0.05517578125,-0.5798339247703552,-0.3356933295726776,-0.4882812201976776,46.66667175292969,34.0,1.0,WarmUp
391470.09375,369773.34375,750000.0625,750000.0625,750000.0625,389254.40625,583513.3125,198733.75,0.016357421875,0.986083984375,-0.05322265625,-0.6103515028953552,-0.3662109076976776,-0.4577636420726776,46.66667175292969,35.0,1.0,WarmUp
385994.53125,364460.84375,750000.0625,750000.0625,750000.0625,383793.96875,575497.4375,196462.09375,0.017578125,0.987060546875,-0.05224609375,-0.5187987685203552,-0.4577636420726776,-0.4882812201976776,46.66667175292969,36.0,1.0,WarmUp
381029.125,359999.625,750000.0625,750000.0625,750000.0625,379051.1875,568381.5625,195158.71875,0.015380859375,0.98828125,-0.0478515625,-0.5798339247703552,-0.5493163466453552,-0.3051757514476776,46.66667175292969,37.0,1.0,WarmUp
376347.4375,355869.21875,750000.0625,750000.0625,750000.0625,374773.3125,562022.9375,194680.65625,0.0146484375,0.98876953125,-0.0498046875,-0.6713866591453552,-0.5798339247703552,-0.3967284858226776,46.66667175292969,38.0,1.0,WarmUp
371771.03125,351517.9375,750000.0625,750000.0625,750000.0625,370492.625,555875.125,193950.125,0.014404296875,0.98779296875,-0.05126953125,-0.7324218153953552,-0.6103515028953552,-0.3356933295726776,46.66667175292969,39.0,1.0,WarmUp
367341.28125,347037.9375,750000.0625,750000.0625,750000.0625,366085.03125,549633.6875,192357.15625,0.013916015625,0.987548828125,-0.050048828125,-0.6713866591453552,-0.6408690810203552,-0.1831054538488388,46.66667175292969,40.0,1.0,WarmUp
363261.09375,343039.75,750000.0625,750000.0625,750000.0625,361947.71875,543653.0,190640.265625,0.013427734375,0.987060546875,-0.05126953125,-0.7629393935203552,-0.7934569716453552,-0.2746581733226776,46.66667175292969,41.0,1.0,WarmUp
359580.21875,339773.4375,750000.0625,750000.0625,750000.0625,358413.375,538396.6875,189787.328125,0.012939453125,0.985107421875,-0.0498046875,-0.8239745497703552,-0.7324218153953552,-0.3662109076976776,46.66667175292969,42.0,1.0,WarmUp
356108.71875,336765.0625,750000.0625,750000.0625,750000.0625,355270.4375,533771.75,189702.65625,0.01416015625,0.986328125,-0.047119140625,-0.8544921278953552,-0.7934569716453552,-0.3356933295726776,46.66667175292969,43.0,1.0,WarmUp
352660.125,333483.65625,750000.0625,750000.0625,750000.0625,352064.3125,529269.5625,189409.859375,0.013427734375,0.984375,-0.0478515625,-0.9460448622703552,-0.8850097060203552,-0.3967284858226776,46.66667175292969,44.0,1.0,WarmUp
349266.3125,329996.0625,750000.0625,750000.0625,750000.0625,348651.8125,524564.0,188250.953125,0.014892578125,0.984375,-0.04736328125,-0.9460448622703552,-0.8544921278953552,-0.3051757514476776,46.66667175292969,45.0,1.0,WarmUp
346162.65625,326929.6875,750000.0625,750000.0625,750000.0625,345457.21875,520031.6875,186951.703125,0.013916015625,0.9873046875,-0.050537109375,-1.0070799589157104,-0.9460448622703552,-0.3662109076976776,46.66667175292969,46.0,1.0,WarmUp
343385.84375,324498.875,750000.0625,750000.0625,750000.0625,342782.0,516111.71875,186458.796875,0.011962890625,0.986328125,-0.049072265625,-0.9765624403953552,-1.0681151151657104,-0.4272460639476776,46.66667175292969,47.0,1.0,WarmUp
340769.4375,322286.0625,750000.0625,750000.0625,750000.0625,340446.6875,512734.5625,186702.703125,0.012939453125,0.984375,-0.049072265625,-0.9155272841453552,-1.0070799589157104,-0.3356933295726776,46.66667175292969,48.0,1.0,WarmUp
338143.375,319773.09375,750000.0625,750000.0625,750000.0625,338006.59375,509392.34375,186684.453125,0.01611328125,0.9833984375,-0.049072265625,-0.9460448622703552,-1.0986326932907104,-0.3356933295726776,46.66667175292969,49.0,1.0,WarmUp
335533.0625,317027.6875,750000.0625,750000.0625,750000.0625,335331.0,505792.1875,185821.328125,0.015869140625,0.98486328125,-0.049560546875,-0.9765624403953552,-1.1291502714157104,-0.3356933295726776,46.66667175292969,50.0,1.0,WarmUp
333131.21875,314626.75,750000.0625,750000.0625,750000.0625,332817.75,502293.4375,184802.4375,0.01904296875,0.982421875,-0.048095703125,-0.9460448622703552,-1.1291502714157104,-0.3356933295726776,46.66667175292969,51.0,1.0,WarmUp
331009.9375,312813.9375,750000.0625,750000.0625,750000.0625,330775.53125,499339.5,184554.703125,0.02001953125,0.9814453125,-0.04931640625,-0.9460448622703552,-1.1596678495407104,-0.3356933295726776,46.66667175292969,52.0,1.0,WarmUp
329009.5625,311174.75,750000.0625,750000.0625,750000.0625,329027.53125,496863.46875,185010.5,0.01806640625,0.980224609375,-0.05078125,-0.7934569716453552,-1.1291502714157104,-0.2136230319738388,46.66667175292969,53.0,1.0,WarmUp
326959.8125,309206.09375,750000.0625,750000.0625,750000.0625,327136.9375,494359.625,185190.296875,0.019287109375,0.9794921875,-0.05078125,-0.7934569716453552,-1.1291502714157104,-0.3051757514476776,46.66667175292969,54.0,1.0,WarmUp
324903.625,306995.78125,750000.0625,750000.0625,750000.0625,325003.78125,491573.09375,184551.75,0.01904296875,0.980224609375,-0.05126953125,-0.7629393935203552,-1.0681151151657104,-0.3662109076976776,46.66667175292969,55.0,1.0,WarmUp
323031.71875,305099.90625,750000.0625,750000.0625,750000.0625,323007.84375,488853.5,183758.265625,0.019287109375,0.98095703125,-0.048095703125,-0.5798339247703552,-1.0681151151657104,-0.3967284858226776,46.66667175292969,56.0,1.0,WarmUp
321408.90625,303745.375,750000.0625,750000.0625,750000.0625,321445.71875,486622.09375,183695.578125,0.021240234375,0.980712890625,-0.046630859375,-0.4577636420726776,-0.9460448622703552,-0.5493163466453552,46.66667175292969,57.0,1.0,WarmUp
319879.6875,302546.4375,750000.0625,750000.0625,750000.0625,320145.9375,484817.0625,184305.875,0.019287109375,0.979248046875,-0.04638671875,-0.4272460639476776,-0.8544921278953552,-0.5493163466453552,46.66667175292969,58.0,1.0,WarmUp
318268.75,301003.1875,750000.0625,750000.0625,750000.0625,318684.5625,482957.5625,184649.640625,0.019775390625,0.979736328125,-0.04736328125,-0.3356933295726776,-0.7324218153953552,-0.3967284858226776,46.66667175292969,59.0,1.0,WarmUp
316631.15625,299195.09375,750000.0625,750000.0625,750000.0625,316963.03125,480794.4375,184190.984375,0.01953125,0.97998046875,-0.046630859375,-0.3356933295726776,-0.7324218153953552,-0.4882812201976776,46.66667175292969,60.0,1.0,WarmUp
315161.65625,297673.03125,750000.0625,750000.0625,750000.0625,315351.84375,478659.78125,183561.296875,0.01953125,0.98193359375,-0.04736328125,-0.2746581733226776,-0.6713866591453552,-0.6103515028953552,46.66667175292969,61.0,1.0,WarmUp
313916.40625,296670.875,750000.0625,750000.0625,750000.0625,314146.4375,476962.46875,183614.21875,0.019775390625,0.98291015625,-0.049072265625,-0.2746581733226776,-0.7934569716453552,-0.6103515028953552,46.66667175292969,62.0,1.0,WarmUp
312743.5625,295801.125,750000.0625,750000.0625,750000.0625,313179.34375,475654.96875,184307.046875,0.01708984375,0.982421875,-0.049560546875,-0.1831054538488388,-0.8239745497703552,-0.6408690810203552,46.66667175292969,63.0,1.0,WarmUp
311475.6875,294583.21875,750000.0625,750000.0625,750000.0625,312059.25,474303.9375,184803.515625,0.016357421875,0.984375,-0.0458984375,-0.1831054538488388,-0.7934569716453552,-0.7019042372703552,46.66667175292969,64.0,1.0,WarmUp
310165.4375,293089.9375,750000.0625,750000.0625,750000.0625,310661.8125,472626.75,184499.265625,0.015869140625,0.984619140625,-0.048095703125,-0.2136230319738388,-0.7324218153953552,-0.7019042372703552,46.66667175292969,65.0,1.0,WarmUp
308994.65625,291854.15625,750000.0625,749112.125,750000.0625,309343.34375,470938.65625,183997.421875,0.016357421875,0.983642578125,-0.04931640625,-0.1525878757238388,-0.6408690810203552,-0.7629393935203552,46.66667175292969,66.0,1.0,WarmUp
308023.40625,291104.9375,750000.0625,746099.5625,750000.0625,308404.5625,469664.96875,184175.96875,0.01708984375,0.984130859375,-0.048583984375,-0.0610351525247097,-0.6713866591453552,-0.8239745497703552,46.66667175292969,67.0,1.0,WarmUp
307124.53125,290488.75,750000.0625,743273.875,750000.0625,307707.8125,468776.71875,185008.890625,0.01708984375,0.98388671875,-0.05078125,-0.0610351525247097,-0.7629393935203552,-0.7019042372703552,46.66667175292969,68.0,1.0,WarmUp
306112.6875,289508.03125,750000.0625,740419.25,750000.0625,306821.875,467785.375,185568.484375,0.01513671875,0.985595703125,-0.0498046875,-0.2441406100988388,-0.7019042372703552,-0.8544921278953552,46.66667175292969,69.0,1.0,WarmUp
305050.28125,288255.34375,750000.0625,737554.9375,750000.0625,305664.9375,466462.40625,185346.125,0.015869140625,0.98486328125,-0.04931640625,-0.1220703050494194,-0.6408690810203552,-0.9765624403953552,46.66667175292969,70.0,1.0,WarmUp
304109.71875,287235.40625,750000.0625,734865.9375,750000.0625,304572.9375,465112.65625,184929.671875,0.0166015625,0.985595703125,-0.0478515625,-0.0610351525247097,-0.6713866591453552,-0.8544921278953552,46.66667175292969,71.0,1.0,WarmUp
303368.875,286698.0625,750000.0625,732477.25,750000.0625,303854.90625,464165.65625,185185.90625,0.015625,0.98681640625,-0.045654296875,-0.0915527269244194,-0.7324218153953552,-0.7324218153953552,46.66667175292969,72.0,1.0,WarmUp
302669.375,286264.09375,750000.0625,730222.5,750000.0625,303346.53125,463564.84375,186070.0625,0.013427734375,0.986328125,-0.0458984375,-0.0610351525247097,-0.7324218153953552,-0.6713866591453552,46.66667175292969,73.0,1.0,WarmUp
301868.1875,285485.0625,750000.0625,727890.75,750000.0625,302665.625,462876.65625,186710.65625,0.013671875,0.985595703125,-0.047607421875,0.0,-0.7934569716453552,-0.8544921278953552,46.66667175292969,74.0,1.0,WarmUp
300999.25,284418.90625,750000.0625,725489.0,750000.0625,301706.1875,461852.25,186579.40625,0.012451171875,0.98486328125,-0.048828125,-0.1220703050494194,-0.8850097060203552,-0.8544921278953552,46.66667175292969,75.0,1.0,WarmUp
300248.40625,283582.3125,750000.0625,723266.8125,750000.0625,300805.21875,460789.625,186252.984375,0.013427734375,0.986083984375,-0.04638671875,0.0,-0.7629393935203552,-0.8850097060203552,46.66667175292969,76.0,1.0,WarmUp
299673.0625,283199.9375,750000.0625,721318.1875,750000.0625,300254.84375,460097.09375,186573.421875,0.01513671875,0.986572265625,-0.0458984375,0.0,-0.7934569716453552,-0.7324218153953552,46.66667175292969,77.0,1.0,WarmUp
299146.65625,282930.09375,750000.0625,719497.4375,750000.0625,299912.5,459738.03125,187512.1875,0.015869140625,0.986572265625,-0.048095703125,0.0,-0.9765624403953552,-0.8544921278953552,46.66667175292969,78.0,1.0,WarmUp
298509.625,282309.0625,750000.0625,717581.875,750000.0625,299396.53125,459288.0625,188216.09375,0.014892578125,0.987548828125,-0.046142578125,-0.0610351525247097,-0.9155272841453552,-0.7934569716453552,46.66667175292969,79.0,1.0,WarmUp
297791.0625,281387.28125,749029.6875,715576.9375,749046.6875,298590.09375,458491.25,188152.25,0.0126953125,0.98681640625,-0.046875,-0.0610351525247097,-1.0375975370407104,-0.7324218153953552,46.66667175292969,80.0,1.0,WarmUp
297177.625,280678.28125,747596.25,713727.25,747613.5625,297821.90625,457632.78125,187871.96875,0.0126953125,0.98779296875,-0.04638671875,-0.1525878757238388,-0.9155272841453552,-0.7324218153953552,46.66667175292969,81.0,1.0,WarmUp
296734.875,280418.125,746242.875,712129.9375,746260.4375,297395.25,457131.5625,188220.109375,0.012939453125,0.985107421875,-0.046142578125,-0.1525878757238388,-1.0375975370407104,-0.8239745497703552,46.66667175292969,82.0,1.0,WarmUp
296325.9375,280255.03125,744947.125,710641.5625,744964.125,297165.90625,456950.875,189179.453125,0.013916015625,0.98291015625,-0.048583984375,-0.2746581733226776,-1.0375975370407104,-0.6713866591453552,46.66667175292969,83.0,1.0,WarmUp
295811.84375,279750.6875,743693.875,709061.8125,743710.875,296766.0,456681.3125,189927.078125,0.012939453125,0.982666015625,-0.049072265625,-0.2746581733226776,-1.0681151151657104,-0.6408690810203552,46.66667175292969,84.0,1.0,WarmUp
295219.1875,278952.90625,742490.625,707381.4375,742507.8125,296085.625,456069.21875,189921.265625,0.01416015625,0.98388671875,-0.0498046875,-0.1831054538488388,-1.1596678495407104,-0.5798339247703552,46.66667175292969,85.0,1.0,WarmUp
294720.5625,278354.25,741349.4375,705837.5625,741367.0625,295441.34375,455395.4375,189702.125,0.01416015625,0.98486328125,-0.05224609375,-0.2136230319738388,-1.2207030057907104,-0.5493163466453552,46.66667175292969,86.0,1.0,WarmUp
294383.9375,278192.875,740266.1875,704525.25,740283.9375,295117.6875,455053.65625,190094.359375,0.013671875,0.984375,-0.0498046875,-0.1525878757238388,-1.2512205839157104,-0.4882812201976776,46.66667175292969,87.0,1.0,WarmUp
294089.34375,278142.78125,739234.125,703319.875,739251.1875,295002.1875,455039.34375,191110.28125,0.0146484375,0.986328125,-0.048095703125,-0.1831054538488388,-1.1291502714157104,-0.3662109076976776,46.66667175292969,88.0,1.0,WarmUp
293674.5,277736.25,738230.5625,701997.4375,738247.3125,294699.28125,454916.03125,191890.984375,0.016845703125,0.9833984375,-0.046875,-0.2136230319738388,-1.1901854276657104,-0.3356933295726776,46.66667175292969,89.0,1.0,WarmUp
293164.59375,277019.3125,737261.5,700559.25,737278.3125,294099.71875,454430.03125,191904.21875,0.015869140625,0.982421875,-0.04736328125,-0.1831054538488388,-1.3122557401657104,-0.2136230319738388,46.66667175292969,90.0,1.0,WarmUp
292752.0625,276501.375,736344.375,699255.5,736361.625,293536.8125,453879.0,191705.921875,0.01611328125,0.9794921875,-0.04833984375,-0.1525878757238388,-1.3732908964157104,-0.1525878757238388,46.66667175292969,91.0,1.0,WarmUp
292501.125,276420.71875,735479.1875,698179.8125,735496.375,293294.96875,453662.75,192118.4375,0.013427734375,0.978759765625,-0.04833984375,-0.03051757626235485,-1.3427733182907104,-0.1220703050494194,46.66667175292969,92.0,1.0,WarmUp
292283.3125,276441.03125,734652.8125,697198.625,734670.0625,293250.96875,453764.5,193148.578125,0.01123046875,0.978515625,-0.05078125,-0.03051757626235485,-1.1291502714157104,-0.1525878757238388,46.66667175292969,93.0,1.0,WarmUp
291950.375,276116.375,733849.1875,696098.0625,733866.625,293033.71875,453769.40625,193967.90625,0.01123046875,0.978759765625,-0.05322265625,0.0,-1.1291502714157104,-0.4272460639476776,46.66667175292969,94.0,1.0,WarmUp
291524.96875,275475.4375,733071.0,694871.3125,733088.4375,292516.9375,453413.21875,194022.8125,0.01318359375,0.982177734375,-0.050537109375,0.03051757626235485,-1.2207030057907104,-0.5798339247703552,46.66667175292969,95.0,1.0,WarmUp
291176.1875,275012.125,732329.5625,693750.0,732346.625,292011.34375,452961.4375,193835.328125,0.012451171875,0.981689453125,-0.04931640625,0.0610351525247097,-1.2207030057907104,-0.5798339247703552,46.66667175292969,96.0,1.0,WarmUp
290988.25,274982.875,731634.25,692846.4375,731651.5,291828.6875,452839.46875,194250.4375,0.012939453125,0.98291015625,-0.046142578125,0.0610351525247097,-1.1596678495407104,-0.6103515028953552,46.66667175292969,97.0,1.0,WarmUp
290834.65625,275062.09375,730971.75,692033.8125,730988.8125,291845.5,453028.21875,195269.3125,0.015869140625,0.984130859375,-0.048828125,0.1220703050494194,-1.2512205839157104,-0.6713866591453552,46.66667175292969,98.0,1.0,WarmUp
290561.4375,274799.34375,730325.5625,691120.375,730342.9375,291692.6875,453124.96875,196114.125,0.01904296875,0.986572265625,-0.051025390625,0.0915527269244194,-1.3122557401657104,-0.7324218153953552,46.66667175292969,99.0,1.0,WarmUp
290187.25,274211.9375,729693.8125,690051.25,729711.4375,291231.8125,452852.8125,196194.5,0.019287109375,0.98486328125,-0.047607421875,-0.03051757626235485,-1.2512205839157104,-0.7019042372703552,46.66667175292969,100.0,1.0,WarmUp
289897.03125,273806.65625,729097.75,689082.5,729115.5625,290791.28125,452495.25,196036.875,0.017822265625,0.9833984375,-0.04931640625,0.0,-1.1596678495407104,-0.6408690810203552,46.66667175292969,101.0,1.0,WarmUp
289766.15625,273833.03125,728544.0625,688333.5625,728561.3125,290672.375,452464.96875,196485.171875,0.020263671875,0.986572265625,-0.04833984375,0.03051757626235485,-1.0375975370407104,-0.6408690810203552,46.66667175292969,102.0,1.0,WarmUp
289665.46875,273963.125,728015.9375,687665.375,728033.0,290749.4375,452745.6875,197550.0,0.02001953125,0.986083984375,-0.0478515625,0.0,-1.0070799589157104,-0.6408690810203552,46.66667175292969,103.0,1.0,WarmUp
289439.5625,273739.25,727489.875,686856.875,727507.375,290632.6875,452904.3125,198388.015625,0.01904296875,0.986572265625,-0.046875,0.0610351525247097,-0.8850097060203552,-0.5798339247703552,46.66667175292969,104.0,1.0,WarmUp
289124.375,273209.40625,726976.6875,685920.0,726994.1875,290218.90625,452696.6875,198472.40625,0.018798828125,0.98828125,-0.04736328125,0.0610351525247097,-0.8239745497703552,-0.5798339247703552,46.66667175292969,105.0,1.0,WarmUp
288893.09375,272858.84375,726497.1875,685087.6875,726514.1875,289828.75,452410.6875,198328.203125,0.017578125,0.989013671875,-0.0498046875,0.0,-0.7934569716453552,-0.5187987685203552,46.66667175292969,106.0,1.0,WarmUp
288812.625,272932.15625,726054.0625,684466.0,726071.3125,289751.84375,452447.78125,198782.296875,0.016845703125,0.986328125,-0.04638671875,-0.1525878757238388,-0.7019042372703552,-0.5187987685203552,46.66667175292969,107.0,1.0,WarmUp
288752.8125,273101.6875,725627.875,683913.6875,725644.75,289862.8125,452782.34375,199846.59375,0.015625,0.9873046875,-0.048095703125,-0.0915527269244194,-0.7019042372703552,-0.4577636420726776,46.66667175292969,108.0,1.0,WarmUp
288560.6875,272911.15625,725200.125,683214.0625,725217.5,289783.125,452991.28125,200686.125,0.015869140625,0.986328125,-0.048583984375,-0.03051757626235485,-0.7019042372703552,-0.4882812201976776,46.66667175292969,109.0,1.0,WarmUp
288278.34375,272415.28125,724782.25,682387.1875,724799.875,289408.6875,452844.75,200779.828125,0.01611328125,0.986328125,-0.048095703125,-0.0915527269244194,-0.6103515028953552,-0.3967284858226776,46.66667175292969,110.0,1.0,WarmUp
288072.0625,272089.0625,724393.9375,681656.0,724411.875,289047.6875,452611.03125,200638.75,0.0146484375,0.98486328125,-0.050048828125,-0.1220703050494194,-0.6408690810203552,-0.3662109076976776,46.66667175292969,111.0,1.0,WarmUp
288022.90625,272188.90625,724036.875,681130.625,724054.0625,288999.84375,452692.5,201092.125,0.014892578125,0.984130859375,-0.050048828125,0.0,-0.6408690810203552,-0.2746581733226776,46.66667175292969,112.0,1.0,WarmUp
287991.59375,272379.4375,723690.4375,680665.8125,723707.75,289132.6875,453066.65625,202145.25,0.013916015625,0.983154296875,-0.049560546875,-0.03051757626235485,-0.6103515028953552,-0.2136230319738388,46.66667175292969,113.0,1.0,WarmUp
287831.21875,272221.375,723342.6875,680056.6875,723360.0625,289080.03125,453328.96875,202989.96875,0.012451171875,0.984619140625,-0.049560546875,-0.0610351525247097,-0.6713866591453552,-0.2746581733226776,46.66667175292969,114.0,1.0,WarmUp
287581.84375,271754.40625,723004.5,679316.5625,723021.75,288739.03125,453238.5,203104.234375,0.01123046875,0.985107421875,-0.049560546875,-0.0915527269244194,-0.6408690810203552,-0.2746581733226776,46.66667175292969,115.0,1.0,WarmUp
287410.8125,271456.5,722688.625,678663.375,722705.8125,288408.5,453050.9375,202970.75,0.0107421875,0.9853515625,-0.049560546875,0.0,-0.6408690810203552,-0.1220703050494194,46.66667175292969,116.0,1.0,WarmUp
287388.28125,271583.28125,722398.6875,678210.875,722415.6875,288383.90625,453168.0625,203417.78125,0.010009765625,0.983642578125,-0.050537109375,0.1220703050494194,-0.6408690810203552,-0.1831054538488388,46.66667175292969,117.0,1.0,WarmUp
287389.71875,271812.78125,722121.9375,677831.1875,722139.5,288550.84375,453586.46875,204476.984375,0.009521484375,0.982421875,-0.04736328125,0.1831054538488388,-0.7324218153953552,-0.1831054538488388,46.66667175292969,118.0,1.0,WarmUp
287258.71875,271687.625,721841.8125,677301.625,721858.75,288534.65625,453895.09375,205335.296875,0.010498046875,0.983642578125,-0.0478515625,0.1525878757238388,-0.7629393935203552,-0.1831054538488388,46.66667175292969,119.0,1.0,WarmUp
287024.65625,271236.46875,721565.125,676622.5625,721581.75,288209.3125,453829.65625,205438.109375,0.010009765625,0.984619140625,-0.048828125,0.1220703050494194,-0.8544921278953552,-0.1525878757238388,46.66667175292969,120.0,1.0,WarmUp
286861.125,270941.5,721303.6875,676028.75,721320.6875,287885.65625,453660.78125,205289.96875,0.010986328125,0.982177734375,-0.047119140625,0.0915527269244194,-0.8544921278953552,-0.1525878757238388,46.66667175292969,121.0,1.0,WarmUp
286855.34375,271075.25,721066.75,675639.875,721084.1875,287876.28125,453804.71875,205727.171875,0.011474609375,0.981689453125,-0.046630859375,0.1525878757238388,-0.8239745497703552,-0.1220703050494194,40.0,122.0,1.0,WarmUp
286873.125,271320.5,720841.1875,675312.75,720858.625,288063.40625,454251.9375,206780.375,0.011474609375,0.98388671875,-0.04638671875,0.2136230319738388,-0.9460448622703552,-0.0915527269244194,40.0,123.0,1.0,WarmUp
286767.8125,271222.4375,720613.375,674844.4375,720630.4375,288078.0625,454598.125,207646.734375,0.013427734375,0.9853515625,-0.049072265625,0.2136230319738388,-0.8850097060203552,-0.0610351525247097,40.0,124.0,1.0,WarmUp
286563.59375,270802.5625,720385.875,674238.25,720403.3125,287789.53125,454576.375,207766.265625,0.01123046875,0.985595703125,-0.0498046875,0.0915527269244194,-0.8544921278953552,-0.1525878757238388,40.0,125.0,1.0,WarmUp
286426.25,270535.15625,720171.5625,673705.375,720189.25,287492.25,454439.34375,207618.390625,0.012939453125,0.982666015625,-0.047119140625,0.1831054538488388,-0.8544921278953552,-0.0915527269244194,40.0,126.0,1.0,WarmUp
286435.90625,270686.15625,719979.3125,673359.8125,719996.6875,287495.21875,454597.9375,208041.640625,0.014404296875,0.982177734375,-0.0478515625,0.2746581733226776,-0.8544921278953552,-0.0610351525247097,40.0,127.0,1.0,WarmUp
286473.03125,270949.46875,719796.9375,673087.75,719814.0625,287702.09375,455069.90625,209095.578125,0.013427734375,0.986572265625,-0.04541015625,0.2136230319738388,-0.8544921278953552,-0.0915527269244194,40.0,128.0,1.0,WarmUp
286384.34375,270864.25,719611.75,672669.1875,719628.5,287726.96875,455437.28125,209957.359375,0.013916015625,0.98486328125,-0.047607421875,0.1831054538488388,-0.8850097060203552,-0.0915527269244194,40.0,129.0,1.0,WarmUp
286199.15625,270460.5,719423.625,672105.875,719440.125,287452.375,455443.09375,210078.875,0.01416015625,0.98486328125,-0.048095703125,0.2441406100988388,-0.8239745497703552,-0.0915527269244194,40.0,130.0,1.0,WarmUp
286071.75,270201.21875,719248.25,671611.125,719265.125,287166.375,455329.03125,209928.84375,0.012939453125,0.982666015625,-0.05029296875,0.1525878757238388,-0.9765624403953552,-0.0915527269244194,40.0,131.0,1.0,WarmUp
286101.09375,270368.59375,719094.875,671318.375,719112.0,287186.5,455520.15625,210355.9375,0.01220703125,0.9853515625,-0.049560546875,0.1831054538488388,-0.9155272841453552,-0.1220703050494194,40.0,132.0,1.0,WarmUp
286150.625,270639.40625,718946.0625,671082.0,718963.375,287395.96875,456006.53125,211396.640625,0.013916015625,0.98583984375,-0.048583984375,0.2136230319738388,-0.8850097060203552,-0.2441406100988388,40.0,133.0,1.0,WarmUp
286072.65625,270569.59375,718791.0,670699.8125,718807.9375,287431.1875,456387.59375,212252.171875,0.014404296875,0.986572265625,-0.04931640625,0.1220703050494194,-0.9155272841453552,-0.3051757514476776,40.0,134.0,1.0,WarmUp
285891.625,270173.59375,718633.3125,670174.875,718649.375,287164.84375,456407.71875,212370.90625,0.0126953125,0.9873046875,-0.050048828125,0.1220703050494194,-0.9155272841453552,-0.2441406100988388,40.0,135.0,1.0,WarmUp
285772.34375,269922.625,718486.375,669716.75,718503.0,286890.5625,456308.90625,212215.15625,0.015869140625,0.985595703125,-0.051513671875,0.0610351525247097,-0.8850097060203552,-0.2136230319738388,40.0,136.0,1.0,WarmUp
285800.0625,270083.84375,718358.625,669442.4375,718375.4375,286908.875,456498.46875,212611.0625,0.01513671875,0.984619140625,-0.050048828125,0.03051757626235485,-0.8850097060203552,-0.2746581733226776,40.0,137.0,1.0,WarmUp
285864.875,270373.40625,718238.8125,669248.125,718255.375,287132.75,456996.46875,213632.0,0.013427734375,0.985595703125,-0.048583984375,-0.0915527269244194,-0.9155272841453552,-0.2746581733226776,40.0,138.0,1.0,WarmUp
285802.90625,270321.21875,718113.5625,668921.5,718129.5,287193.65625,457408.71875,214501.5625,0.013427734375,0.985107421875,-0.04833984375,-0.0915527269244194,-0.7934569716453552,-0.2441406100988388,40.0,139.0,1.0,WarmUp
285628.84375,269933.0,717981.8125,668428.75,717997.875,286936.78125,457446.4375,214622.625,0.01123046875,0.98486328125,-0.048095703125,-0.0610351525247097,-0.8850097060203552,-0.3356933295726776,40.0,140.0,1.0,WarmUp
285519.6875,269689.53125,717861.0625,668003.625,717877.375,286674.5625,457364.46875,214460.4375,0.010986328125,0.984130859375,-0.05029296875,0.1525878757238388,-0.8544921278953552,-0.3356933295726776,40.0,141.0,1.0,WarmUp
285563.75,269869.4375,717758.4375,667771.375,717774.375,286714.875,457581.4375,214867.15625,0.01318359375,0.98291015625,-0.049072265625,0.0915527269244194,-0.8544921278953552,-0.4272460639476776,40.0,142.0,1.0,WarmUp
285637.34375,270163.3125,717659.9375,667601.9375,717675.5625,286948.84375,458099.125,215897.125,0.01318359375,0.984130859375,-0.05029296875,0.0,-0.8544921278953552,-0.4882812201976776,40.0,143.0,1.0,WarmUp
285585.40625,270118.6875,717554.0625,667289.375,717570.0,287010.09375,458517.53125,216753.8125,0.012939453125,0.986328125,-0.05078125,-0.0915527269244194,-0.8850097060203552,-0.3967284858226776,40.0,144.0,1.0,WarmUp
285436.53125,269752.84375,717443.5625,666831.9375,717460.375,286773.625,458577.875,216877.109375,0.01171875,0.985595703125,-0.048583984375,-0.1220703050494194,-0.9155272841453552,-0.3356933295726776,40.0,145.0,1.0,WarmUp
285340.59375,269518.0625,717340.3125,666432.0625,717356.75,286512.375,458502.96875,216705.53125,0.01318359375,0.987060546875,-0.05029296875,-0.1525878757238388,-0.9155272841453552,-0.4272460639476776,40.0,146.0,1.0,WarmUp
285391.90625,269698.21875,717256.8125,666224.875,717272.8125,286552.6875,458721.03125,217093.75,0.01123046875,0.98779296875,-0.0478515625,-0.2746581733226776,-1.0070799589157104,-0.5493163466453552,40.0,147.0,1.0,WarmUp
285471.03125,269996.65625,717175.125,666084.0625,717191.8125,286792.9375,459244.6875,218108.875,0.01123046875,0.986572265625,-0.049560546875,-0.2746581733226776,-0.9765624403953552,-0.4577636420726776,40.0,148.0,1.0,WarmUp
285421.0625,269957.125,717086.125,665795.3125,717102.625,286861.0625,459675.0,218960.46875,0.011474609375,0.984619140625,-0.048583984375,-0.2441406100988388,-1.0070799589157104,-0.3662109076976776,40.0,149.0,1.0,WarmUp
285270.21875,269593.4375,716991.1875,665353.875,717007.4375,286625.46875,459739.8125,219071.96875,0.012939453125,0.986328125,-0.048583984375,-0.3051757514476776,-1.0681151151657104,-0.4577636420726776,40.0,150.0,1.0,WarmUp
285177.6875,269363.03125,716906.25,664973.75,716922.3125,286371.375,459675.53125,218894.125,0.013671875,0.986572265625,-0.046875,-0.3356933295726776,-1.1291502714157104,-0.3662109076976776,40.0,151.0,1.0,WarmUp
285230.0,269543.28125,716838.1875,664771.3125,716853.9375,286410.625,459897.71875,219258.90625,0.013916015625,0.986572265625,-0.05126953125,-0.3051757514476776,-1.1291502714157104,-0.3662109076976776,40.0,152.0,1.0,WarmUp
285298.5,269833.125,716770.6875,664624.125,716786.125,286633.25,460405.53125,220218.421875,0.014404296875,0.986328125,-0.04931640625,-0.2441406100988388,-1.0986326932907104,-0.3356933295726776,40.0,153.0,1.0,WarmUp
285255.84375,269809.53125,716695.6875,664383.625,716711.375,286717.8125,460853.28125,221080.484375,0.015869140625,0.984375,-0.04833984375,-0.3051757514476776,-1.1291502714157104,-0.3356933295726776,40.0,154.0,1.0,WarmUp
285118.78125,269459.21875,716616.0,663977.375,716631.75,286500.46875,460940.28125,221210.578125,0.01513671875,0.985595703125,-0.046875,-0.2746581733226776,-1.0375975370407104,-0.2441406100988388,40.0,155.0,1.0,WarmUp
285035.375,269236.6875,716544.125,663620.5625,716559.75,286255.84375,460889.5,221031.9375,0.01513671875,0.98583984375,-0.04638671875,-0.4272460639476776,-1.0986326932907104,-0.2441406100988388,40.0,156.0,1.0,WarmUp
285097.5,269428.21875,716489.75,663455.9375,716505.9375,286309.15625,461130.5625,221409.234375,0.013427734375,0.98486328125,-0.0478515625,-0.3967284858226776,-1.0986326932907104,-0.3051757514476776,40.0,157.0,1.0,WarmUp
285176.0,269730.6875,716436.0,663347.3125,716452.5,286551.0,461665.90625,222405.140625,0.01318359375,0.98291015625,-0.051025390625,-0.3356933295726776,-1.1596678495407104,-0.2746581733226776,40.0,158.0,1.0,WarmUp
285136.46875,269704.3125,716375.0625,663093.0625,716391.125,286631.0,462114.28125,223249.140625,0.012451171875,0.984619140625,-0.0478515625,-0.3051757514476776,-1.1291502714157104,-0.0915527269244194,40.0,159.0,1.0,WarmUp
284989.21875,269345.5,716303.4375,662680.0,716319.0625,286397.46875,462191.4375,223349.28125,0.0126953125,0.986328125,-0.04638671875,-0.2746581733226776,-1.1291502714157104,-0.0610351525247097,40.0,160.0,1.0,WarmUp
284903.5625,269121.625,716240.9375,662336.125,716256.4375,286152.59375,462144.15625,223159.109375,0.01171875,0.986572265625,-0.047607421875,-0.3967284858226776,-1.1901854276657104,-0.0610351525247097,40.0,161.0,1.0,WarmUp
284967.40625,269314.75,716193.625,662185.9375,716209.625,286201.0625,462380.8125,223514.234375,0.013427734375,0.98681640625,-0.047607421875,-0.3662109076976776,-1.1901854276657104,-0.0610351525247097,40.0,162.0,1.0,WarmUp
285059.5,269629.03125,716150.1875,662100.625,716165.9375,286449.59375,462919.3125,224499.046875,0.012939453125,0.986083984375,-0.048095703125,-0.2441406100988388,-1.1901854276657104,-0.0610351525247097,40.0,163.0,1.0,WarmUp
285030.71875,269610.59375,716096.0,661871.75,716111.375,286538.125,463371.4375,225338.046875,0.01318359375,0.9853515625,-0.0478515625,-0.3356933295726776,-1.0986326932907104,-0.1525878757238388,40.0,164.0,1.0,WarmUp
284895.0,269258.15625,716034.75,661486.125,716049.6875,286318.96875,463459.5,225439.53125,0.013427734375,0.985107421875,-0.046142578125,-0.3356933295726776,-1.1291502714157104,-0.0915527269244194,40.0,165.0,1.0,WarmUp
284825.6875,269043.75,715985.25,661170.0625,716000.5,286086.875,463427.59375,225253.828125,0.01416015625,0.986083984375,-0.046142578125,-0.3967284858226776,-1.0986326932907104,0.0,40.0,166.0,1.0,WarmUp
284889.96875,269230.875,715948.375,661025.0625,715964.25,286136.21875,463666.65625,225601.265625,0.0146484375,0.985107421875,-0.048095703125,-0.2441406100988388,-1.1291502714157104,-0.03051757626235485,40.0,167.0,1.0,WarmUp
284983.9375,269546.9375,715914.5,660945.3125,715929.8125,286383.875,464204.90625,226575.359375,0.014404296875,0.98486328125,-0.046875,-0.2441406100988388,-1.0375975370407104,-0.1220703050494194,40.0,168.0,1.0,WarmUp
284958.1875,269537.09375,715868.375,660724.375,715883.3125,286474.8125,464659.96875,227405.234375,0.015625,0.984619140625,-0.04931640625,-0.2136230319738388,-1.0070799589157104,-0.1525878757238388,40.0,169.0,1.0,WarmUp
284819.96875,269186.0,715813.5625,660343.9375,715829.0625,286255.5,464748.21875,227497.765625,0.0166015625,0.984130859375,-0.047119140625,-0.1831054538488388,-1.0986326932907104,-0.1220703050494194,40.0,170.0,1.0,WarmUp
284737.8125,268956.0625,715765.375,660021.8125,715780.75,286008.65625,464701.46875,227283.8125,0.015869140625,0.985107421875,-0.047119140625,-0.3662109076976776,-1.0375975370407104,-0.1831054538488388,40.0,171.0,1.0,WarmUp
284803.34375,269139.5,715733.125,659881.125,715748.5,286052.71875,464935.625,227603.53125,0.01513671875,0.983154296875,-0.047607421875,-0.3967284858226776,-1.0070799589157104,-0.0915527269244194,40.0,172.0,1.0,WarmUp
284909.125,269464.25,715707.1875,659812.5,715722.5,286305.65625,465474.375,228542.84375,0.0146484375,0.981689453125,-0.04638671875,-0.3356933295726776,-0.9155272841453552,-0.1220703050494194,40.0,173.0,1.0,WarmUp
284893.84375,269473.4375,715670.25,659637.8125,715684.9375,286416.34375,465954.3125,229398.46875,0.01611328125,0.982421875,-0.04638671875,-0.3662109076976776,-0.8850097060203552,-0.1831054538488388,40.0,174.0,1.0,WarmUp
284750.25,269118.3125,715619.125,659264.625,715633.9375,286195.6875,466049.4375,229501.015625,0.013671875,0.981689453125,-0.0458984375,-0.1831054538488388,-0.8239745497703552,-0.1220703050494194,40.0,175.0,1.0,WarmUp
284667.71875,268890.78125,715577.375,658945.9375,715592.5,285950.4375,466007.4375,229284.921875,0.01416015625,0.983154296875,-0.046142578125,-0.1525878757238388,-0.9155272841453552,-0.1831054538488388,40.0,176.0,1.0,WarmUp
284731.5625,269075.21875,715548.6875,658818.3125,715563.5,285997.03125,466242.3125,229601.515625,0.013427734375,0.982421875,-0.046142578125,-0.2136230319738388,-0.9460448622703552,-0.1525878757238388,40.0,177.0,1.0,WarmUp
284829.8125,269398.34375,715525.3125,658767.75,715540.0,286255.125,466794.84375,230562.09375,0.013427734375,0.982666015625,-0.048095703125,-0.0915527269244194,-0.8850097060203552,-0.1525878757238388,40.0,178.0,1.0,WarmUp
284807.90625,269395.65625,715491.5625,658572.1875,715506.0,286355.625,467266.0,231390.1875,0.014404296875,0.9833984375,-0.048828125,-0.0915527269244194,-0.8239745497703552,-0.1220703050494194,40.0,179.0,1.0,WarmUp
284675.59375,269047.4375,715446.5625,658212.25,715461.5625,286140.78125,467363.28125,231475.75,0.015380859375,0.982666015625,-0.049560546875,-0.1525878757238388,-0.7934569716453552,-0.1525878757238388,40.0,180.0,1.0,WarmUp
284606.65625,268834.1875,715413.9375,657916.75,715429.0625,285907.4375,467333.0625,231256.25,0.013916015625,0.982666015625,-0.048828125,-0.2441406100988388,-0.8239745497703552,-0.2136230319738388,40.0,181.0,1.0,WarmUp
284680.15625,269029.90625,715395.125,657807.6875,715409.875,285963.59375,467580.53125,231571.0625,0.01416015625,0.98388671875,-0.045654296875,-0.1525878757238388,-0.7629393935203552,-0.2441406100988388,40.0,182.0,1.0,WarmUp
284785.5625,269361.25,715378.1875,657765.4375,715393.25,286222.6875,468130.5625,232520.5625,0.01513671875,0.983642578125,-0.048095703125,-0.0915527269244194,-0.7934569716453552,-0.3662109076976776,40.0,183.0,1.0,WarmUp
284771.15625,269369.65625,715352.3125,657586.375,715367.0625,286333.09375,468612.3125,233351.953125,0.013427734375,0.985595703125,-0.050048828125,-0.03051757626235485,-0.8544921278953552,-0.2136230319738388,40.0,184.0,1.0,WarmUp
284643.75,269026.59375,715315.125,657240.1875,715329.6875,286126.21875,468726.03125,233442.796875,0.01416015625,0.986083984375,-0.047119140625,-0.0915527269244194,-0.7934569716453552,-0.2441406100988388,40.0,185.0,1.0,WarmUp
284562.40625,268797.34375,715280.5625,656936.5625,715295.3125,285879.625,468685.34375,233202.375,0.014404296875,0.98876953125,-0.0478515625,-0.03051757626235485,-0.7934569716453552,-0.3051757514476776,40.0,186.0,1.0,WarmUp
284625.6875,268981.875,715259.25,656819.25,715274.1875,285919.9375,468915.40625,233487.765625,0.0146484375,0.986572265625,-0.04833984375,-0.03051757626235485,-0.8544921278953552,-0.3967284858226776,40.0,187.0,1.0,WarmUp
284728.6875,269310.09375,715244.5625,656783.625,715259.3125,286174.125,469460.25,234419.203125,0.01416015625,0.98583984375,-0.048095703125,-0.0915527269244194,-0.8544921278953552,-0.3967284858226776,40.0,188.0,1.0,WarmUp
284707.6875,269314.03125,715216.875,656603.875,715231.375,286278.03125,469931.6875,235229.140625,0.011962890625,0.984130859375,-0.048583984375,0.0,-0.8850097060203552,-0.4272460639476776,40.0,189.0,1.0,WarmUp
284576.4375,268973.65625,715180.375,656266.0,715194.875,286075.6875,470043.4375,235312.65625,0.012451171875,0.98486328125,-0.047607421875,-0.0610351525247097,-0.8850097060203552,-0.4272460639476776,40.0,190.0,1.0,WarmUp
284495.53125,268744.6875,715152.25,655977.75,715167.0,285833.9375,470005.875,235068.21875,0.01416015625,0.984130859375,-0.048095703125,-0.1525878757238388,-0.9155272841453552,-0.3967284858226776,40.0,191.0,1.0,WarmUp
284567.65625,268934.0625,715139.1875,655877.5625,715154.1875,285883.5625,470244.875,235348.0625,0.015380859375,0.986083984375,-0.046875,-0.03051757626235485,-1.0070799589157104,-0.3356933295726776,40.0,192.0,1.0,WarmUp
284680.25,269268.15625,715130.625,655856.0,715145.0625,286147.3125,470798.3125,236271.8125,0.012451171875,0.984375,-0.05029296875,-0.0915527269244194,-1.1291502714157104,-0.2441406100988388,40.0,193.0,1.0,WarmUp
284667.4375,269279.0,715108.25,655690.9375,715122.1875,286253.8125,471275.28125,237078.796875,0.0126953125,0.985107421875,-0.04833984375,-0.0915527269244194,-1.0681151151657104,-0.2136230319738388,40.0,194.0,1.0,WarmUp
284537.71875,268939.0625,715073.125,655357.625,715087.4375,286051.28125,471388.46875,237157.828125,0.01318359375,0.983154296875,-0.047119140625,-0.1525878757238388,-1.0681151151657104,-0.2136230319738388,40.0,195.0,1.0,WarmUp
284461.8125,268707.9375,715046.3125,655072.0,715060.75,285809.625,471354.78125,236904.1875,0.014404296875,0.982421875,-0.048828125,-0.0915527269244194,-1.0986326932907104,-0.2441406100988388,40.0,196.0,1.0,WarmUp
284536.28125,268899.375,715036.875,654977.75,715050.75,285857.53125,471598.125,237178.03125,0.013916015625,0.983154296875,-0.04931640625,-0.03051757626235485,-1.0681151151657104,-0.3051757514476776,40.0,197.0,1.0,WarmUp
284649.5625,269233.75,715029.6875,654958.875,715043.8125,286117.4375,472153.4375,238098.03125,0.01318359375,0.98388671875,-0.04833984375,-0.03051757626235485,-1.1901854276657104,-0.3051757514476776,40.0,198.0,1.0,WarmUp
284639.09375,269251.1875,715009.1875,654797.4375,715023.5,286226.71875,472631.875,238902.078125,0.01220703125,0.983642578125,-0.04931640625,0.0610351525247097,-1.2207030057907104,-0.3051757514476776,40.0,199.0,1.0,WarmUp
284508.5625,268913.5,714975.5,654460.1875,714989.6875,286021.0625,472741.75,238969.75,0.011962890625,0.985107421875,-0.04833984375,0.1831054538488388,-1.1901854276657104,-0.2136230319738388,40.0,200.0,1.0,WarmUp
284437.9375,268690.15625,714953.8125,654182.9375,714967.625,285788.15625,472712.6875,238714.234375,0.01123046875,0.98583984375,-0.046875,0.1831054538488388,-1.2207030057907104,-0.2746581733226776,40.0,201.0,1.0,WarmUp
284512.5,268881.75,714945.0625,654096.8125,714959.125,285836.4375,472953.71875,238975.390625,0.012939453125,0.9833984375,-0.048828125,0.2746581733226776,-1.3427733182907104,-0.2441406100988388,40.0,202.0,1.0,WarmUp
284618.90625,269213.71875,714938.8125,654086.5625,714952.9375,286095.90625,473507.78125,239887.34375,0.01171875,0.9833984375,-0.047607421875,0.2441406100988388,-1.2207030057907104,-0.3967284858226776,40.0,203.0,1.0,WarmUp
284606.375,269227.03125,714922.625,653934.5625,714936.5,286202.75,473986.28125,240685.734375,0.011474609375,0.98388671875,-0.046142578125,0.3051757514476776,-1.3122557401657104,-0.3967284858226776,40.0,204.0,1.0,WarmUp
284480.78125,268892.3125,714894.1875,653614.375,714908.0,285999.53125,474099.84375,240749.484375,0.01416015625,0.982177734375,-0.046875,0.4272460639476776,-1.2817381620407104,-0.5187987685203552,40.0,205.0,1.0,WarmUp
284412.90625,268670.03125,714873.8125,653349.6875,714887.5625,285769.125,474072.65625,240485.375,0.015869140625,0.982421875,-0.0478515625,0.3662109076976776,-1.3122557401657104,-0.3356933295726776,40.0,206.0,1.0,WarmUp
284484.0,268853.15625,714867.3125,653262.6875,714880.875,285816.5,474307.15625,240722.125,0.019287109375,0.983642578125,-0.049072265625,0.2746581733226776,-1.2512205839157104,-0.3662109076976776,40.0,207.0,1.0,WarmUp
284584.21875,269177.34375,714861.6875,653236.9375,714875.3125,286063.625,474837.71875,241582.84375,0.01953125,0.984619140625,-0.05126953125,0.2746581733226776,-1.2207030057907104,-0.3051757514476776,40.0,208.0,1.0,WarmUp
284575.28125,269201.375,714844.75,653106.5625,714858.4375,286184.78125,475323.5625,242387.0625,0.018310546875,0.98486328125,-0.046630859375,0.2746581733226776,-1.1291502714157104,-0.2136230319738388,40.0,209.0,1.0,WarmUp
284450.90625,268867.1875,714817.75,652798.0,714831.4375,285992.46875,475451.21875,242472.359375,0.01611328125,0.984375,-0.04736328125,0.5187987685203552,-1.0986326932907104,-0.0915527269244194,40.0,210.0,1.0,WarmUp
284374.65625,268635.71875,714798.1875,652524.9375,714811.5625,285753.5625,475418.3125,242198.5,0.01513671875,0.98291015625,-0.05029296875,0.5187987685203552,-1.1596678495407104,-0.03051757626235485,40.0,211.0,1.0,WarmUp
284442.9375,268814.4375,714792.625,652440.125,714806.4375,285798.1875,475654.4375,242434.984375,0.016357421875,0.982177734375,-0.050048828125,0.4577636420726776,-1.0070799589157104,0.0915527269244194,40.0,212.0,1.0,WarmUp
284554.25,269153.46875,714792.4375,652435.1875,714805.9375,286065.5,476211.28125,243331.46875,0.015869140625,0.980224609375,-0.0478515625,0.5493163466453552,-0.9765624403953552,0.0,40.0,213.0,1.0,WarmUp
284543.875,269172.15625,714780.3125,652293.125,714794.1875,286180.46875,476697.8125,244125.671875,0.013916015625,0.9775390625,-0.047607421875,0.6103515028953552,-0.8850097060203552,0.0610351525247097,40.0,214.0,1.0,WarmUp
284409.78125,268828.75,714751.625,651977.375,714765.4375,285975.46875,476814.0625,244184.953125,0.0146484375,0.979736328125,-0.047607421875,0.7019042372703552,-0.9460448622703552,0.0610351525247097,40.0,215.0,1.0,WarmUp
284334.84375,268597.78125,714732.8125,651712.1875,714746.4375,285737.375,476784.625,243906.625,0.014404296875,0.981689453125,-0.048828125,0.7324218153953552,-0.8544921278953552,0.1220703050494194,40.0,216.0,1.0,WarmUp
284402.625,268774.71875,714730.9375,651632.125,714744.625,285777.71875,477016.375,244131.484375,0.016845703125,0.982421875,-0.048583984375,0.7324218153953552,-0.8544921278953552,0.0610351525247097,40.0,217.0,1.0,WarmUp
284513.9375,269112.5,714729.0625,651635.0,714742.5625,286039.84375,477569.90625,245013.9375,0.016357421875,0.985595703125,-0.050048828125,0.7934569716453552,-0.8544921278953552,0.0610351525247097,40.0,218.0,1.0,WarmUp
284512.0625,269141.3125,714716.75,651504.3125,714730.25,286161.0,478064.9375,245807.875,0.015869140625,0.986328125,-0.04833984375,0.8239745497703552,-0.9155272841453552,0.1525878757238388,40.0,219.0,1.0,WarmUp
284392.0,268816.5,714691.3125,651204.0625,714705.375,285967.4375,478189.125,245869.109375,0.01416015625,0.984619140625,-0.051025390625,0.7324218153953552,-0.7934569716453552,0.1525878757238388,40.0,220.0,1.0,WarmUp
284321.625,268591.28125,714676.3125,650950.9375,714689.75,285734.6875,478156.3125,245582.65625,0.01123046875,0.98681640625,-0.050048828125,0.7629393935203552,-0.6713866591453552,0.1525878757238388,40.0,221.0,1.0,WarmUp
284390.90625,268773.3125,714675.0,650877.0,714688.375,285777.15625,478384.9375,245796.25,0.011962890625,0.987060546875,-0.05029296875,0.7934569716453552,-0.6408690810203552,0.0610351525247097,40.0,222.0,1.0,WarmUp
284502.6875,269113.21875,714674.875,650881.125,714687.9375,286037.0,478931.84375,246662.328125,0.01171875,0.987060546875,-0.051025390625,0.7324218153953552,-0.7019042372703552,0.0,40.0,223.0,1.0,WarmUp
284495.78125,269140.0625,714660.875,650750.875,714674.4375,286156.96875,479420.34375,247441.59375,0.0107421875,0.986572265625,-0.049560546875,0.6713866591453552,-0.7019042372703552,-0.0610351525247097,40.0,224.0,1.0,WarmUp
284369.46875,268807.46875,714638.25,650453.3125,714652.1875,285964.125,479552.0625,247506.515625,0.011474609375,0.986572265625,-0.0478515625,0.6408690810203552,-0.7629393935203552,-0.2136230319738388,40.0,225.0,1.0,WarmUp
284296.21875,268575.71875,714623.375,650197.875,714636.8125,285724.6875,479522.375,247211.109375,0.0107421875,0.988037109375,-0.047607421875,0.6103515028953552,-0.6713866591453552,-0.2746581733226776,40.0,226.0,1.0,WarmUp
284368.28125,268754.78125,714623.125,650122.75,714636.625,285766.71875,479754.1875,247412.640625,0.01025390625,0.987548828125,-0.048583984375,0.5493163466453552,-0.7324218153953552,-0.3967284858226776,40.0,227.0,1.0,WarmUp
284479.875,269087.03125,714624.75,650127.0625,714638.125,286023.21875,480298.40625,248265.125,0.01025390625,0.986083984375,-0.05029296875,0.5493163466453552,-0.7629393935203552,-0.3356933295726776,40.0,228.0,1.0,WarmUp
284468.6875,269111.96875,714611.5625,649998.625,714624.5625,286142.75,480787.46875,249042.171875,0.010009765625,0.988525390625,-0.049072265625,0.4577636420726776,-0.9460448622703552,-0.4577636420726776,40.0,229.0,1.0,WarmUp
284342.625,268779.28125,714588.625,649698.0,714601.375,285947.59375,480914.25,249099.390625,0.011962890625,0.989501953125,-0.050048828125,0.4272460639476776,-0.8850097060203552,-0.4272460639476776,40.0,230.0,1.0,WarmUp
284275.40625,268552.5625,714574.0625,649445.4375,714587.0625,285709.65625,480885.375,248799.0625,0.01416015625,0.989013671875,-0.049072265625,0.3051757514476776,-0.8850097060203552,-0.3051757514476776,40.0,231.0,1.0,WarmUp
284350.78125,268733.0625,714575.125,649375.625,714588.1875,285753.5625,481116.59375,248995.046875,0.014892578125,0.98876953125,-0.046142578125,0.4272460639476776,-0.9460448622703552,-0.3051757514476776,40.0,232.0,1.0,WarmUp
284468.4375,269079.34375,714577.0625,649391.6875,714590.0625,286023.3125,481668.40625,249853.71875,0.01611328125,0.9873046875,-0.049072265625,0.3662109076976776,-0.9155272841453552,-0.2441406100988388,40.0,233.0,1.0,WarmUp
284462.34375,269111.71875,714566.8125,649267.9375,714579.3125,286149.375,482162.28125,250632.09375,0.01611328125,0.986328125,-0.04736328125,0.3051757514476776,-0.9460448622703552,-0.0915527269244194,40.0,234.0,1.0,WarmUp
284338.15625,268780.71875,714544.8125,648967.8125,714557.6875,285959.125,482293.53125,250686.1875,0.015625,0.9853515625,-0.04833984375,0.1525878757238388,-0.9155272841453552,-0.1525878757238388,40.0,235.0,1.0,WarmUp
284263.5,268543.53125,714528.8125,648706.9375,714542.0,285714.3125,482253.46875,250367.53125,0.0146484375,0.987060546875,-0.04931640625,0.1220703050494194,-0.9460448622703552,-0.0610351525247097,40.0,236.0,1.0,WarmUp
284341.84375,268724.3125,714529.9375,648641.1875,714543.4375,285756.875,482480.84375,250549.921875,0.014892578125,0.98583984375,-0.052490234375,0.0610351525247097,-0.9460448622703552,0.03051757626235485,40.0,237.0,1.0,WarmUp
284452.5,269061.28125,714530.3125,648647.0,714543.5625,286012.5625,483018.28125,251384.53125,0.01416015625,0.986083984375,-0.05078125,-0.03051757626235485,-0.8850097060203552,0.0915527269244194,40.0,238.0,1.0,WarmUp
284451.625,269096.875,714518.625,648524.125,714531.5625,286141.0625,483514.65625,252158.625,0.01318359375,0.988037109375,-0.046630859375,-0.03051757626235485,-0.8544921278953552,0.1831054538488388,40.0,239.0,1.0,WarmUp
284341.84375,268778.03125,714501.625,648236.9375,714514.75,285955.96875,483655.375,252215.84375,0.01220703125,0.986083984375,-0.046630859375,-0.0915527269244194,-0.8239745497703552,0.2441406100988388,40.0,240.0,1.0,WarmUp
284279.15625,268548.71875,714490.0,647987.1875,714502.9375,285716.0,483628.65625,251900.859375,0.01025390625,0.986328125,-0.048583984375,-0.1525878757238388,-1.0375975370407104,0.2746581733226776,40.0,241.0,1.0,WarmUp
284353.09375,268717.59375,714491.3125,647910.375,714504.0625,285744.28125,483846.34375,252058.484375,0.01025390625,0.985595703125,-0.04833984375,-0.3662109076976776,-1.0986326932907104,0.2746581733226776,40.0,242.0,1.0,WarmUp
284471.1875,269055.125,714495.0625,647914.875,714508.125,285994.6875,484379.03125,252859.671875,0.010986328125,0.985107421875,-0.0458984375,-0.3662109076976776,-1.0681151151657104,0.2136230319738388,40.0,243.0,1.0,WarmUp
284473.15625,269102.15625,714486.3125,647823.4375,714500.0,286131.65625,484884.71875,253642.6875,0.010986328125,0.9853515625,-0.0458984375,-0.5187987685203552,-1.0375975370407104,0.2746581733226776,40.0,244.0,1.0,WarmUp
284350.3125,268778.5,714468.0,647536.875,714481.0625,285950.1875,485027.4375,253710.734375,0.01123046875,0.98486328125,-0.04541015625,-0.5187987685203552,-1.0375975370407104,0.2746581733226776,40.0,245.0,1.0,WarmUp
284269.3125,268537.625,714456.125,647278.375,714468.625,285706.34375,484988.8125,253383.5,0.01171875,0.986083984375,-0.043701171875,-0.5493163466453552,-1.1901854276657104,0.2746581733226776,40.0,246.0,1.0,WarmUp
284326.8125,268701.15625,714457.8125,647202.6875,714470.625,285741.21875,485210.71875,253546.125,0.013427734375,0.9853515625,-0.045654296875,-0.5493163466453552,-1.1596678495407104,0.2136230319738388,40.0,247.0,1.0,WarmUp
284436.875,269039.8125,714459.25,647210.5,714472.5,286001.40625,485757.34375,254375.015625,0.01220703125,0.98583984375,-0.047119140625,-0.6103515028953552,-1.1901854276657104,0.2441406100988388,40.0,248.0,1.0,WarmUp
284438.75,269084.625,714451.625,647097.875,714464.6875,286135.34375,486260.0625,255146.0625,0.013427734375,0.98388671875,-0.04736328125,-0.7019042372703552,-1.2512205839157104,0.1831054538488388,40.0,249.0,1.0,WarmUp
284320.28125,268764.375,714433.25,646812.25,714446.1875,285955.96875,486401.78125,255195.25,0.013916015625,0.9833984375,-0.048828125,-0.6408690810203552,-1.1901854276657104,0.1525878757238388,40.0,250.0,1.0,WarmUp
284243.46875,268522.53125,714421.625,646563.25,714434.375,285713.96875,486369.96875,254864.96875,0.013427734375,0.983642578125,-0.04736328125,-0.7324218153953552,-1.1901854276657104,0.1831054538488388,40.0,251.0,1.0,WarmUp
284305.625,268685.3125,714424.5625,646492.3125,714437.0,285742.84375,486585.53125,255013.5625,0.011962890625,0.983154296875,-0.04638671875,-0.5798339247703552,-1.1291502714157104,0.1525878757238388,40.0,252.0,1.0,WarmUp
284417.375,269022.75,714427.0625,646512.0625,714439.8125,286000.0625,487124.46875,255829.9375,0.01318359375,0.98291015625,-0.048828125,-0.6103515028953552,-1.1901854276657104,0.2746581733226776,40.0,253.0,1.0,WarmUp
284420.6875,269064.78125,714420.875,646405.0625,714433.375,286131.5,487627.03125,256596.78125,0.016357421875,0.9814453125,-0.048095703125,-0.5493163466453552,-1.2512205839157104,0.2746581733226776,40.0,254.0,1.0,WarmUp
284302.3125,268743.875,714402.5625,646124.875,714415.0,285945.78125,487767.5625,256641.765625,0.017822265625,0.980224609375,-0.048095703125,-0.5187987685203552,-1.2207030057907104,0.3967284858226776,40.0,255.0,1.0,WarmUp
284226.0625,268499.71875,714390.0625,645880.125,714402.125,285703.3125,487736.1875,256304.25,0.0185546875,0.980224609375,-0.047607421875,-0.5493163466453552,-1.2207030057907104,0.3662109076976776,40.0,256.0,1.0,WarmUp
284290.40625,268660.28125,714390.0625,645811.0625,714402.125,285727.09375,487946.375,256437.46875,0.017333984375,0.98046875,-0.049072265625,-0.5493163466453552,-1.1596678495407104,0.3356933295726776,40.0,257.0,1.0,WarmUp
284404.78125,268996.71875,714394.3125,645822.8125,714406.5625,285976.1875,488475.03125,257225.765625,0.018310546875,0.978759765625,-0.0458984375,-0.3356933295726776,-1.0681151151657104,0.2441406100988388,40.0,258.0,1.0,WarmUp
284414.96875,269053.6875,714389.3125,645730.0625,714401.9375,286110.65625,488975.28125,257980.53125,0.01708984375,0.9775390625,-0.048583984375,-0.2746581733226776,-1.0070799589157104,0.2136230319738388,40.0,259.0,1.0,WarmUp
284294.90625,268740.03125,714369.375,645460.75,714381.75,285931.3125,489119.75,258033.734375,0.01513671875,0.97900390625,-0.049072265625,-0.2136230319738388,-1.0986326932907104,0.2441406100988388,40.0,260.0,1.0,WarmUp
284221.9375,268501.0625,714358.5,645220.0625,714370.625,285691.875,489087.84375,257692.734375,0.015625,0.97998046875,-0.048828125,-0.2441406100988388,-1.0375975370407104,0.2441406100988388,40.0,261.0,1.0,WarmUp
284296.21875,268674.15625,714361.5,645163.5625,714373.5,285722.09375,489304.5625,257824.4375,0.014892578125,0.9814453125,-0.051513671875,-0.1220703050494194,-0.9765624403953552,0.1220703050494194,40.0,262.0,1.0,WarmUp
284426.78125,269028.8125,714369.375,645199.3125,714381.8125,285987.0,489850.40625,258631.25,0.015869140625,0.98291015625,-0.04736328125,-0.0915527269244194,-1.0681151151657104,0.1220703050494194,40.0,263.0,1.0,WarmUp
284430.25,269073.09375,714361.625,645094.625,714373.6875,286117.4375,490348.9375,259386.109375,0.01513671875,0.984130859375,-0.04638671875,-0.0610351525247097,-1.0375975370407104,0.0915527269244194,40.0,264.0,1.0,WarmUp
284325.75,268764.0,714345.875,644827.3125,714357.875,285948.75,490502.09375,259437.34375,0.0146484375,0.98388671875,-0.047119140625,0.0,-1.0375975370407104,-0.03051757626235485,40.0,265.0,1.0,WarmUp
284249.65625,268517.875,714337.5625,644583.5,714349.1875,285710.125,490472.5625,259092.765625,0.015869140625,0.985107421875,-0.047607421875,0.03051757626235485,-0.9460448622703552,-0.1525878757238388,40.0,266.0,1.0,WarmUp
284310.8125,268675.21875,714339.625,644518.5625,714351.5,285735.59375,490682.78125,259211.671875,0.015625,0.98486328125,-0.047607421875,0.0915527269244194,-0.9460448622703552,-0.0915527269244194,40.0,267.0,1.0,WarmUp
284420.25,269015.9375,714344.625,644544.4375,714356.25,285992.46875,491220.5625,260003.734375,0.016845703125,0.983154296875,-0.048095703125,0.1525878757238388,-0.9155272841453552,-0.0915527269244194,40.0,268.0,1.0,WarmUp
284421.75,269068.78125,714337.375,644448.5,714349.5625,286128.375,491725.09375,260758.6875,0.016845703125,0.982666015625,-0.048583984375,0.1831054538488388,-1.0375975370407104,-0.0915527269244194,40.0,269.0,1.0,WarmUp
284301.34375,268750.3125,714320.6875,644177.6875,714333.0625,285951.34375,491874.03125,260803.65625,0.015869140625,0.983642578125,-0.04638671875,0.2136230319738388,-0.8850097060203552,-0.1525878757238388,40.0,270.0,1.0,WarmUp
284215.5,268494.1875,714310.5625,643930.8125,714322.8125,285703.5,491837.90625,260446.03125,0.014892578125,0.98291015625,-0.046630859375,0.2441406100988388,-0.8850097060203552,-0.1525878757238388,40.0,271.0,1.0,WarmUp
284271.75,268639.71875,714310.4375,643861.875,714322.8125,285717.71875,492034.96875,260542.9375,0.014892578125,0.9833984375,-0.048095703125,0.3356933295726776,-0.9155272841453552,-0.1831054538488388,40.0,272.0,1.0,WarmUp
284388.6875,268980.71875,714315.3125,643891.5,714327.25,285975.375,492572.65625,261328.390625,0.014892578125,0.9853515625,-0.04541015625,0.3356933295726776,-0.8544921278953552,-0.1220703050494194,40.0,273.0,1.0,WarmUp
284398.6875,269039.5625,714312.25,643803.6875,714324.9375,286119.25,493088.28125,262087.1875,0.01318359375,0.98388671875,-0.046875,0.3356933295726776,-0.9155272841453552,-0.0915527269244194,40.0,274.0,1.0,WarmUp
284278.34375,268721.90625,714294.3125,643539.3125,714306.625,285938.1875,493235.875,262131.171875,0.013427734375,0.983154296875,-0.04833984375,0.3662109076976776,-0.9155272841453552,-0.1525878757238388,40.0,275.0,1.0,WarmUp
284196.28125,268468.0625,714282.6875,643294.6875,714294.8125,285683.5625,493190.71875,261762.546875,0.0126953125,0.983154296875,-0.0478515625,0.2441406100988388,-0.9155272841453552,-0.1525878757238388,40.0,276.0,1.0,WarmUp
284271.90625,268637.40625,714289.75,643249.625,714301.8125,285716.8125,493410.84375,261876.71875,0.012451171875,0.9853515625,-0.04736328125,0.4272460639476776,-1.0070799589157104,-0.1220703050494194,40.0,277.0,1.0,WarmUp
284380.09375,268976.71875,714293.375,643279.0625,714305.625,285969.21875,493945.0625,262654.125,0.012939453125,0.9873046875,-0.049072265625,0.5187987685203552,-0.9460448622703552,-0.0610351525247097,40.0,278.0,1.0,WarmUp
284385.09375,269034.8125,714287.9375,643191.875,714299.9375,286111.375,494450.84375,263403.34375,0.0126953125,0.986083984375,-0.0458984375,0.3662109076976776,-1.0070799589157104,0.0,40.0,279.0,1.0,WarmUp
284273.15625,268727.71875,714272.0,642933.1875,714284.25,285939.25,494599.96875,263442.6875,0.01171875,0.986572265625,-0.045166015625,0.3356933295726776,-0.9765624403953552,0.0,40.0,280.0,1.0,WarmUp
284197.25,268483.28125,714262.5625,642703.625,714274.6875,285698.21875,494568.65625,263081.28125,0.012939453125,0.986083984375,-0.044677734375,0.3356933295726776,-1.0070799589157104,0.03051757626235485,40.0,281.0,1.0,WarmUp
284263.6875,268639.1875,714268.25,642654.875,714280.0625,285722.71875,494777.25,263176.5,0.011474609375,0.985107421875,-0.044921875,0.3051757514476776,-1.1291502714157104,0.0,40.0,282.0,1.0,WarmUp
284376.25,268983.59375,714276.5,642694.25,714288.1875,285982.0,495318.0,263949.625,0.01416015625,0.981201171875,-0.046875,0.2746581733226776,-1.0681151151657104,0.0610351525247097,40.0,283.0,1.0,WarmUp
284379.28125,269043.75,714272.3125,642608.0625,714283.9375,286126.5625,495830.1875,264699.125,0.015380859375,0.97998046875,-0.0478515625,0.1525878757238388,-1.0681151151657104,0.0610351525247097,40.0,284.0,1.0,WarmUp
284263.40625,268734.9375,714258.9375,642349.1875,714270.875,285962.34375,495993.1875,264746.5,0.013671875,0.982177734375,-0.04931640625,0.2441406100988388,-1.1291502714157104,0.0610351525247097,40.0,285.0,1.0,WarmUp
284179.5625,268478.34375,714247.5,642108.6875,714259.3125,285712.875,495954.3125,264370.71875,0.014404296875,0.98388671875,-0.048583984375,0.3051757514476776,-1.1596678495407104,0.2441406100988388,40.0,286.0,1.0,WarmUp
284244.5625,268631.25,714250.75,642056.8125,714262.4375,285737.21875,496154.03125,264450.28125,0.014892578125,0.9833984375,-0.0458984375,0.3356933295726776,-1.2512205839157104,0.1831054538488388,40.0,287.0,1.0,WarmUp
284358.8125,268976.15625,714256.375,642092.8125,714268.25,285994.0625,496685.03125,265208.8125,0.0166015625,0.983642578125,-0.046875,0.3967284858226776,-1.1596678495407104,0.2136230319738388,40.0,288.0,1.0,WarmUp
284363.90625,269035.0,714252.0,642009.625,714263.5,286134.15625,497191.875,265951.15625,0.018310546875,0.983642578125,-0.0498046875,0.3662109076976776,-1.1901854276657104,0.3051757514476776,40.0,289.0,1.0,WarmUp
284244.8125,268721.71875,714234.8125,641749.875,714246.8125,285959.125,497339.46875,265981.5625,0.01806640625,0.982421875,-0.0478515625,0.4577636420726776,-1.2207030057907104,0.4272460639476776,40.0,290.0,1.0,WarmUp
284168.375,268470.21875,714226.1875,641516.3125,714238.375,285715.3125,497305.15625,265606.15625,0.017822265625,0.981689453125,-0.048828125,0.4577636420726776,-1.2207030057907104,0.3967284858226776,40.0,291.0,1.0,WarmUp
284227.84375,268613.71875,714229.9375,641455.25,714242.25,285725.3125,497499.875,265667.75,0.014892578125,0.98046875,-0.051513671875,0.4882812201976776,-1.1596678495407104,0.4272460639476776,40.0,292.0,1.0,WarmUp
284344.96875,268957.40625,714238.5,641492.5,714250.5,285973.875,498021.84375,266397.9375,0.012939453125,0.979736328125,-0.05078125,0.4577636420726776,-1.1901854276657104,0.2746581733226776,40.0,293.0,1.0,WarmUp
284361.9375,269032.03125,714237.3125,641436.6875,714249.25,286128.8125,498541.125,267150.5625,0.010498046875,0.978515625,-0.051513671875,0.5798339247703552,-1.1596678495407104,0.2746581733226776,40.0,294.0,1.0,WarmUp
284245.28125,268719.65625,714220.375,641188.3125,714232.0625,285959.375,498698.5625,267197.40625,0.01123046875,0.98095703125,-0.048828125,0.7629393935203552,-1.1901854276657104,0.03051757626235485,40.0,295.0,1.0,WarmUp
284172.75,268472.34375,714209.4375,640964.5625,714221.0625,285711.90625,498661.1875,266815.375,0.01123046875,0.98046875,-0.050537109375,0.7324218153953552,-1.2512205839157104,-0.1525878757238388,40.0,296.0,1.0,WarmUp
284233.1875,268617.28125,714212.1875,640920.8125,714224.25,285727.375,498859.21875,266880.28125,0.01123046875,0.981201171875,-0.04931640625,0.7934569716453552,-1.3122557401657104,-0.2746581733226776,40.0,297.0,1.0,WarmUp
284352.75,268961.15625,714220.1875,640967.5,714232.125,285978.4375,499388.59375,267626.46875,0.012451171875,0.98291015625,-0.05224609375,0.8239745497703552,-1.2817381620407104,-0.3967284858226776,40.0,298.0,1.0,WarmUp
284363.8125,269030.4375,714215.25,640894.9375,714227.125,286122.28125,499899.75,268365.6875,0.01318359375,0.9833984375,-0.05029296875,0.8850097060203552,-1.3122557401657104,-0.5493163466453552,40.0,299.0,1.0,WarmUp
284251.53125,268727.625,714203.4375,640649.8125,714215.0,285962.5,500067.8125,268413.4375,0.015625,0.984130859375,-0.048583984375,1.0070799589157104,-1.3427733182907104,-0.4577636420726776,40.0,300.0,1.0,WarmUp
284165.875,268467.96875,714193.625,640417.8125,714204.6875,285708.15625,500025.53125,268023.28125,0.016845703125,0.986083984375,-0.047119140625,0.9765624403953552,-1.3122557401657104,-0.5187987685203552,40.0,301.0,1.0,WarmUp
284226.40625,268617.375,714198.0625,640372.3125,714209.625,285721.5625,500218.21875,268077.34375,0.015380859375,0.984375,-0.052490234375,0.9460448622703552,-1.3732908964157104,-0.4882812201976776,40.0,302.0,1.0,WarmUp
284342.0,268963.5625,714206.3125,640418.0,714217.75,285978.15625,500749.5625,268819.78125,0.016845703125,0.98583984375,-0.05224609375,1.0375975370407104,-1.2207030057907104,-0.4577636420726776,40.0,303.0,1.0,WarmUp
284350.15625,269032.21875,714198.625,640343.1875,714210.5,286126.21875,501258.90625,269553.90625,0.017822265625,0.987548828125,-0.050048828125,1.0986326932907104,-1.1901854276657104,-0.4882812201976776,40.0,304.0,1.0,WarmUp
284233.28125,268720.71875,714183.9375,640094.375,714195.875,285961.0,501418.84375,269589.6875,0.015869140625,0.9873046875,-0.051513671875,0.9765624403953552,-1.1291502714157104,-0.5493163466453552,40.0,305.0,1.0,WarmUp
284157.375,268468.5,714177.6875,639871.375,714189.5,285719.6875,501390.6875,269207.5625,0.016357421875,0.9892578125,-0.05078125,0.9765624403953552,-1.2207030057907104,-0.5187987685203552,40.0,306.0,1.0,WarmUp
284224.0,268618.1875,714183.5,639827.75,714195.5625,285736.84375,501590.875,269261.46875,0.015625,0.98681640625,-0.052001953125,0.9765624403953552,-1.0986326932907104,-0.4272460639476776,40.0,307.0,1.0,WarmUp
284336.8125,268960.25,714190.375,639873.1875,714202.3125,285987.1875,502114.875,269989.40625,0.015380859375,0.985107421875,-0.051513671875,0.9155272841453552,-1.1596678495407104,-0.2746581733226776,40.0,308.0,1.0,WarmUp
284346.21875,269027.21875,714185.5625,639798.75,714197.0,286128.71875,502619.15625,270711.8125,0.01513671875,0.984619140625,-0.046630859375,0.9765624403953552,-1.1901854276657104,-0.3356933295726776,40.0,309.0,1.0,WarmUp
284238.125,268729.6875,714172.625,639562.375,714184.25,285970.5625,502789.8125,270761.0,0.0146484375,0.984375,-0.05078125,0.8850097060203552,-1.2512205839157104,-0.3662109076976776,40.0,310.0,1.0,WarmUp
284152.90625,268466.8125,714161.625,639335.5,714172.9375,285720.9375,502757.28125,270368.21875,0.01318359375,0.9833984375,-0.051513671875,0.9155272841453552,-1.1596678495407104,-0.3967284858226776,40.0,311.0,1.0,WarmUp
284219.15625,268607.09375,714168.9375,639290.6875,714180.3125,285730.40625,502953.0,270403.8125,0.011962890625,0.98388671875,-0.05078125,0.9460448622703552,-1.1901854276657104,-0.4577636420726776,40.0,312.0,1.0,WarmUp
284339.78125,268953.71875,714176.8125,639337.8125,714188.25,285978.5,503471.8125,271114.0625,0.01318359375,0.983154296875,-0.050048828125,0.9460448622703552,-1.2512205839157104,-0.3356933295726776,40.0,313.0,1.0,WarmUp
284349.4375,269023.71875,714172.25,639273.75,714183.4375,286123.71875,503982.0625,271841.40625,0.01220703125,0.98291015625,-0.049560546875,0.9765624403953552,-1.2817381620407104,-0.2441406100988388,40.0,314.0,1.0,WarmUp
284238.28125,268716.625,714157.3125,639036.25,714168.5,285961.53125,504149.78125,271886.90625,0.012451171875,0.981201171875,-0.052001953125,0.9460448622703552,-1.2512205839157104,-0.3662109076976776,40.0,315.0,1.0,WarmUp
284153.4375,268449.03125,714145.125,638805.4375,714156.6875,285704.5625,504108.40625,271485.375,0.013671875,0.98046875,-0.05029296875,0.9460448622703552,-1.2817381620407104,-0.3051757514476776,40.0,316.0,1.0,WarmUp
284213.1875,268588.21875,714150.875,638761.1875,714162.0625,285711.625,504297.65625,271513.1875,0.014404296875,0.980712890625,-0.051513671875,0.9155272841453552,-1.2207030057907104,-0.3967284858226776,40.0,317.0,1.0,WarmUp
284328.0625,268930.9375,714161.4375,638814.5,714172.625,285962.34375,504824.53125,272228.875,0.01416015625,0.979736328125,-0.051025390625,1.0375975370407104,-1.3427733182907104,-0.4577636420726776,40.0,318.0,1.0,WarmUp
284339.0625,269006.75,714158.3125,638753.8125,714169.9375,286112.1875,505342.9375,272960.15625,0.013671875,0.98095703125,-0.050048828125,1.0681151151657104,-1.4038084745407104,-0.3967284858226776,40.0,319.0,1.0,WarmUp
284226.5,268705.8125,714143.4375,638520.1875,714155.0625,285952.5,505510.03125,272995.1875,0.012939453125,0.980712890625,-0.0498046875,1.1901854276657104,-1.3427733182907104,-0.4577636420726776,40.0,320.0,1.0,WarmUp
284139.15625,268440.625,714134.5,638293.5,714145.6875,285703.0625,505469.875,272585.0,0.011474609375,0.98095703125,-0.049072265625,1.1901854276657104,-1.4038084745407104,-0.5493163466453552,40.0,321.0,1.0,WarmUp
284197.875,268578.5625,714136.6875,638247.3125,714148.3125,285707.4375,505653.53125,272598.21875,0.01220703125,0.980712890625,-0.051025390625,1.1901854276657104,-1.4038084745407104,-0.5187987685203552,40.0,322.0,1.0,WarmUp
284326.28125,268936.90625,714148.0,638311.5625,714159.375,285969.65625,506183.96875,273314.5625,0.013427734375,0.98046875,-0.053466796875,1.1901854276657104,-1.4953612089157104,-0.4577636420726776,40.0,323.0,1.0,WarmUp
284345.5,269021.75,714148.75,638252.1875,714159.875,286130.875,506704.5,274045.375,0.0146484375,0.97998046875,-0.052490234375,1.0986326932907104,-1.4648436307907104,-0.5493163466453552,40.0,324.0,1.0,WarmUp
284238.46875,268730.5625,714136.3125,638019.125,714147.375,285979.3125,506880.625,274088.09375,0.0146484375,0.98095703125,-0.05224609375,1.0681151151657104,-1.4648436307907104,-0.6103515028953552,40.0,325.0,1.0,WarmUp
284149.78125,268465.375,714125.1875,637790.25,714136.5625,285724.5,506838.4375,273675.65625,0.013671875,0.981689453125,-0.05078125,1.1596678495407104,-1.4343260526657104,-0.6408690810203552,40.0,326.0,1.0,WarmUp
284205.46875,268596.625,714128.375,637739.625,714139.875,285723.09375,507013.84375,273673.4375,0.0146484375,0.984130859375,-0.05322265625,1.2512205839157104,-1.3732908964157104,-0.7019042372703552,40.0,327.0,1.0,WarmUp
284322.25,268936.65625,714136.75,637782.8125,714148.1875,285965.09375,507517.9375,274339.875,0.013916015625,0.986083984375,-0.054443359375,1.1901854276657104,-1.3732908964157104,-0.7629393935203552,40.0,328.0,1.0,WarmUp
284340.65625,269027.5,714133.8125,637747.875,714144.625,286126.21875,508037.375,275070.25,0.013671875,0.987060546875,-0.053466796875,1.2817381620407104,-1.4648436307907104,-0.7629393935203552,40.0,329.0,1.0,WarmUp
284227.375,268728.15625,714119.3125,637524.0,714129.875,285976.375,508218.34375,275131.03125,0.013427734375,0.9873046875,-0.0546875,1.1901854276657104,-1.4343260526657104,-0.8850097060203552,40.0,330.0,1.0,WarmUp
284136.1875,268457.96875,714109.125,637295.8125,714119.375,285720.21875,508180.34375,274720.65625,0.012451171875,0.987060546875,-0.0556640625,1.1291502714157104,-1.3732908964157104,-0.8544921278953552,40.0,331.0,1.0,WarmUp
284193.9375,268591.4375,714114.375,637254.375,714124.9375,285724.25,508364.53125,274728.53125,0.0126953125,0.984619140625,-0.052490234375,1.0681151151657104,-1.4038084745407104,-0.8544921278953552,40.0,332.0,1.0,WarmUp
284318.125,268943.09375,714126.3125,637320.0,714136.9375,285982.625,508891.65625,275431.53125,0.0126953125,0.986328125,-0.053466796875,1.0375975370407104,-1.3122557401657104,-0.8544921278953552,40.0,333.0,1.0,WarmUp
284335.5625,269028.1875,714124.25,637266.9375,714135.0625,286138.09375,509408.875,276152.59375,0.01318359375,0.985595703125,-0.05419921875,1.0986326932907104,-1.2817381620407104,-0.8544921278953552,40.0,334.0,1.0,WarmUp
284219.6875,268722.78125,714108.0625,637028.9375,714118.75,285975.75,509573.84375,276181.65625,0.01220703125,0.9873046875,-0.054443359375,0.9155272841453552,-1.2817381620407104,-0.9765624403953552,40.0,335.0,1.0,WarmUp
284132.53125,268448.40625,714097.4375,636806.25,714108.6875,285717.34375,509533.6875,275765.03125,0.01220703125,0.987060546875,-0.0537109375,0.7934569716453552,-1.3427733182907104,-0.8544921278953552,40.0,336.0,1.0,WarmUp
284188.75,268575.4375,714102.75,636760.75,714114.0625,285712.4375,509711.8125,275759.125,0.011474609375,0.98583984375,-0.051513671875,0.8239745497703552,-1.4038084745407104,-0.8239745497703552,40.0,337.0,1.0,WarmUp
284313.21875,268923.96875,714112.6875,636823.25,714123.4375,285964.9375,510234.84375,276450.21875,0.013427734375,0.986328125,-0.05322265625,0.8239745497703552,-1.3427733182907104,-0.8850097060203552,40.0,338.0,1.0,WarmUp
284330.5625,269005.75,714111.25,636766.1875,714121.1875,286118.71875,510754.1875,277172.09375,0.013427734375,0.987548828125,-0.054443359375,0.7324218153953552,-1.4038084745407104,-0.8239745497703552,40.0,339.0,1.0,WarmUp
284211.03125,268698.03125,714095.0,636522.8125,714104.8125,285952.0625,510918.96875,277199.65625,0.0126953125,0.986083984375,-0.05322265625,0.7324218153953552,-1.3427733182907104,-0.7629393935203552,40.0,340.0,1.0,WarmUp
284129.03125,268434.1875,714083.5625,636305.3125,714093.9375,285701.4375,510882.9375,276778.90625,0.010498046875,0.984130859375,-0.053955078125,0.7324218153953552,-1.3732908964157104,-0.6713866591453552,40.0,341.0,1.0,WarmUp
284192.96875,268570.34375,714091.0,636274.25,714101.625,285714.125,511076.3125,276779.875,0.01171875,0.9833984375,-0.056396484375,0.6713866591453552,-1.3427733182907104,-0.7019042372703552,40.0,342.0,1.0,WarmUp
284317.6875,268919.46875,714102.75,636333.125,714113.125,285965.0,511598.46875,277458.84375,0.011474609375,0.985595703125,-0.053466796875,0.7629393935203552,-1.3427733182907104,-0.6713866591453552,40.0,343.0,1.0,WarmUp
284336.03125,269005.3125,714100.25,636283.9375,714110.9375,286118.34375,512112.8125,278164.4375,0.01220703125,0.984619140625,-0.0537109375,0.6408690810203552,-1.3122557401657104,-0.6103515028953552,40.0,344.0,1.0,WarmUp
284231.84375,268716.09375,714087.375,636070.625,714097.9375,285970.1875,512292.25,278210.03125,0.01025390625,0.9833984375,-0.052978515625,0.6408690810203552,-1.3122557401657104,-0.5798339247703552,40.0,345.0,1.0,WarmUp
284137.96875,268436.3125,714076.5,635842.875,714086.9375,285708.875,512245.0625,277777.46875,0.01171875,0.983154296875,-0.055419921875,0.6408690810203552,-1.3427733182907104,-0.4882812201976776,40.0,346.0,1.0,WarmUp
284187.0625,268555.0625,714081.9375,635804.4375,714092.375,285705.03125,512423.5,277759.40625,0.011962890625,0.983642578125,-0.05419921875,0.6103515028953552,-1.2817381620407104,-0.6408690810203552,40.0,347.0,1.0,WarmUp
284310.4375,268905.90625,714094.75,635879.0625,714105.125,285960.46875,512949.40625,278443.5625,0.012451171875,0.985595703125,-0.057861328125,0.6103515028953552,-1.3122557401657104,-0.5187987685203552,40.0,348.0,1.0,WarmUp
284333.0625,269000.9375,714092.5,635835.8125,714102.75,286125.84375,513471.375,279163.09375,0.01171875,0.98486328125,-0.056396484375,0.5798339247703552,-1.3427733182907104,-0.5187987685203552,40.0,349.0,1.0,WarmUp
284226.0625,268712.9375,714076.3125,635613.75,714086.4375,285973.34375,513644.28125,279194.65625,0.009521484375,0.985107421875,-0.058837890625,0.6408690810203552,-1.4038084745407104,-0.5187987685203552,40.0,350.0,1.0,WarmUp
284148.09375,268451.875,714067.25,635404.8125,714077.75,285725.9375,513611.28125,278771.25,0.0107421875,0.985595703125,-0.055419921875,0.6408690810203552,-1.3427733182907104,-0.5187987685203552,40.0,351.0,1.0,WarmUp
284210.84375,268585.1875,714073.5625,635375.0,714084.0625,285729.78125,513792.25,278750.59375,0.010009765625,0.98583984375,-0.054931640625,0.5798339247703552,-1.4343260526657104,-0.4882812201976776,40.0,352.0,1.0,WarmUp
284339.25,268938.96875,714082.6875,635446.875,714093.375,285981.90625,514308.65625,279422.84375,0.010498046875,0.986083984375,-0.05517578125,0.6103515028953552,-1.4648436307907104,-0.4272460639476776,40.0,353.0,1.0,WarmUp
284359.625,269027.21875,714079.5,635400.5,714090.0625,286138.46875,514824.96875,280135.40625,0.009765625,0.988037109375,-0.0546875,0.6408690810203552,-1.3427733182907104,-0.4577636420726776,40.0,354.0,1.0,WarmUp
284252.59375,268735.46875,714068.1875,635181.25,714078.4375,285987.71875,515006.125,280177.15625,0.01025390625,0.98779296875,-0.052490234375,0.5187987685203552,-1.3427733182907104,-0.4882812201976776,40.0,355.0,1.0,WarmUp
284161.125,268456.0,714057.25,634955.875,714067.8125,285724.40625,514962.125,279740.84375,0.009765625,0.9873046875,-0.056640625,0.5493163466453552,-1.2817381620407104,-0.4577636420726776,40.0,356.0,1.0,WarmUp
284221.5625,268582.78125,714063.25,634919.5,714073.5625,285723.4375,515140.15625,279711.34375,0.010498046875,0.98486328125,-0.056884765625,0.5798339247703552,-1.3122557401657104,-0.4577636420726776,40.0,357.0,1.0,WarmUp
284341.03125,268929.59375,714075.625,634984.6875,714085.875,285974.5,515659.25,280379.5,0.012939453125,0.98486328125,-0.0556640625,0.4272460639476776,-1.2512205839157104,-0.3051757514476776,40.0,358.0,1.0,WarmUp
284355.875,269019.09375,714072.625,634935.6875,714083.125,286132.28125,516178.59375,281088.9375,0.014404296875,0.986572265625,-0.05712890625,0.3662109076976776,-1.2817381620407104,-0.4882812201976776,40.0,359.0,1.0,WarmUp
284247.9375,268728.25,714059.875,634715.4375,714070.5,285986.90625,516361.875,281127.46875,0.010986328125,0.98583984375,-0.056396484375,0.3662109076976776,-1.2817381620407104,-0.3662109076976776,40.0,360.0,1.0,WarmUp
284158.53125,268452.40625,714050.8125,634500.6875,714061.3125,285734.0,516320.40625,280689.28125,0.011962890625,0.987060546875,-0.056640625,0.3051757514476776,-1.2512205839157104,-0.3356933295726776,40.0,361.0,1.0,WarmUp
284204.21875,268563.28125,714054.875,634451.875,714065.25,285723.09375,516481.25,280631.96875,0.011474609375,0.98681640625,-0.0546875,0.3662109076976776,-1.2207030057907104,-0.3662109076976776,40.0,362.0,1.0,WarmUp
284317.875,268900.96875,714061.9375,634498.5625,714072.1875,285963.6875,516978.0,281253.0,0.01171875,0.987548828125,-0.053955078125,0.2746581733226776,-1.2512205839157104,-0.3356933295726776,40.0,363.0,1.0,WarmUp
284340.40625,269004.59375,714062.0,634475.5625,714072.125,286137.5625,517504.6875,281966.03125,0.009765625,0.986328125,-0.05517578125,0.2746581733226776,-1.2817381620407104,-0.2441406100988388,40.0,364.0,1.0,WarmUp
284230.96875,268718.125,714047.8125,634267.0,714058.0,286000.0625,517698.0,282028.34375,0.010009765625,0.98486328125,-0.05712890625,0.2441406100988388,-1.3122557401657104,-0.3051757514476776,40.0,365.0,1.0,WarmUp
284139.59375,268436.40625,714038.6875,634042.875,714049.5,285747.3125,517661.875,281597.21875,0.0107421875,0.98388671875,-0.056396484375,0.0610351525247097,-1.2512205839157104,-0.2746581733226776,40.0,366.0,1.0,WarmUp
284189.5625,268550.21875,714045.125,634001.8125,714055.5,285736.3125,517829.6875,281546.96875,0.01318359375,0.983642578125,-0.052490234375,0.0,-1.1291502714157104,-0.2746581733226776,40.0,367.0,1.0,WarmUp
284312.5,268904.1875,714056.0,634071.875,714066.375,285989.59375,518343.9375,282201.0625,0.0126953125,0.983642578125,-0.05322265625,-0.0915527269244194,-1.0681151151657104,-0.2441406100988388,40.0,368.0,1.0,WarmUp
284336.8125,269008.25,714054.125,634036.0625,714064.125,286156.4375,518868.78125,282912.46875,0.012939453125,0.984619140625,-0.053955078125,-0.1220703050494194,-1.0070799589157104,-0.2441406100988388,40.0,369.0,1.0,WarmUp
284225.0625,268714.21875,714040.0,633817.25,714049.6875,286003.375,519048.125,282944.3125,0.013916015625,0.983642578125,-0.05615234375,-0.1831054538488388,-1.0375975370407104,-0.1831054538488388,40.0,370.0,1.0,WarmUp
284128.875,268426.65625,714027.5,633599.8125,714037.625,285737.125,518998.5,282492.1875,0.013427734375,0.983642578125,-0.056884765625,-0.1220703050494194,-1.0986326932907104,-0.1220703050494194,40.0,371.0,1.0,WarmUp
284177.21875,268536.1875,714028.8125,633562.125,714039.375,285718.15625,519155.3125,282428.0625,0.012451171875,0.984375,-0.05517578125,-0.0915527269244194,-1.1596678495407104,-0.2136230319738388,40.0,372.0,1.0,WarmUp
284305.625,268891.78125,714040.4375,633643.125,714050.9375,285972.0625,519674.875,283082.625,0.01220703125,0.98583984375,-0.052978515625,-0.1220703050494194,-1.0681151151657104,-0.03051757626235485,40.0,373.0,1.0,WarmUp
284341.90625,269001.28125,714042.9375,633618.4375,714053.6875,286144.90625,520211.03125,283803.59375,0.01220703125,0.986572265625,-0.054443359375,0.0,-1.0375975370407104,-0.0610351525247097,40.0,374.0,1.0,WarmUp
284246.625,268723.15625,714032.6875,633412.0,714043.4375,286004.4375,520404.34375,283850.90625,0.013916015625,0.98583984375,-0.052978515625,-0.1525878757238388,-0.8850097060203552,0.0,40.0,375.0,1.0,WarmUp
284159.875,268446.96875,714024.8125,633197.125,714035.25,285748.65625,520367.78125,283407.96875,0.01416015625,0.98828125,-0.0546875,-0.2746581733226776,-0.8239745497703552,0.0610351525247097,40.0,376.0,1.0,WarmUp
284206.8125,268555.5,714028.0,633154.5,714038.375,285730.59375,520525.46875,283338.6875,0.0126953125,0.98779296875,-0.05517578125,-0.1525878757238388,-0.8239745497703552,-0.03051757626235485,40.0,377.0,1.0,WarmUp
284325.90625,268901.875,714037.4375,633223.0,714047.8125,285974.125,521027.78125,283970.875,0.01220703125,0.9853515625,-0.054931640625,-0.3051757514476776,-0.8239745497703552,-0.03051757626235485,40.0,378.0,1.0,WarmUp
284346.75,269008.4375,714038.375,633189.125,714048.75,286145.96875,521553.125,284680.0625,0.012451171875,0.986572265625,-0.055908203125,-0.3051757514476776,-0.8544921278953552,0.0,40.0,379.0,1.0,WarmUp
284227.3125,268714.28125,714023.9375,632962.125,714034.4375,285997.1875,521734.96875,284712.78125,0.01171875,0.987548828125,-0.055908203125,-0.3051757514476776,-0.8544921278953552,-0.0610351525247097,40.0,380.0,1.0,WarmUp
284135.75,268435.34375,714015.0625,632742.75,714025.4375,285744.8125,521698.3125,284266.625,0.012451171875,0.985107421875,-0.0537109375,-0.3967284858226776,-0.7324218153953552,-0.0915527269244194,40.0,381.0,1.0,WarmUp
284184.03125,268547.1875,714019.6875,632694.875,714030.25,285726.03125,521852.09375,284180.8125,0.012451171875,0.985595703125,-0.050537109375,-0.3051757514476776,-0.7934569716453552,-0.03051757626235485,40.0,382.0,1.0,WarmUp
284297.9375,268887.375,714028.8125,632748.25,714038.875,285964.375,522342.78125,284778.59375,0.013427734375,0.98486328125,-0.05419921875,-0.3356933295726776,-0.6408690810203552,0.0610351525247097,40.0,383.0,1.0,WarmUp
284330.65625,269008.25,714032.4375,632740.625,714042.4375,286152.6875,522886.28125,285501.0,0.013427734375,0.985595703125,-0.0556640625,-0.4272460639476776,-0.7324218153953552,-0.03051757626235485,40.0,384.0,1.0,WarmUp
284221.5625,268724.5,714019.875,632536.6875,714030.375,286015.34375,523083.6875,285559.5625,0.009033203125,0.986083984375,-0.053955078125,-0.4577636420726776,-0.8239745497703552,0.0915527269244194,40.0,385.0,1.0,WarmUp
284133.25,268440.53125,714011.125,632317.375,714021.4375,285757.0625,523043.90625,285108.9375,0.0107421875,0.984375,-0.052734375,-0.4272460639476776,-0.6713866591453552,0.0610351525247097,40.0,386.0,1.0,WarmUp
284183.3125,268545.3125,714013.0,632277.3125,714023.0,285732.375,523195.71875,285021.6875,0.01123046875,0.984130859375,-0.0546875,-0.3662109076976776,-0.7629393935203552,0.03051757626235485,40.0,387.0,1.0,WarmUp
284311.875,268898.375,714024.625,632356.25,714034.5625,285982.1875,523705.96875,285652.34375,0.008544921875,0.9833984375,-0.0546875,-0.3356933295726776,-0.8239745497703552,0.1220703050494194,40.0,388.0,1.0,WarmUp
284337.34375,269006.03125,714025.625,632332.5,714035.8125,286154.03125,524237.9375,286361.4375,0.010009765625,0.984130859375,-0.05322265625,-0.3051757514476776,-0.8850097060203552,0.0,40.0,389.0,1.0,WarmUp
284228.71875,268717.0625,714012.125,632123.125,714022.125,286011.59375,524429.875,286401.78125,0.009521484375,0.98291015625,-0.052001953125,-0.2746581733226776,-0.9155272841453552,-0.03051757626235485,40.0,390.0,1.0,WarmUp
284136.1875,268430.6875,714000.0625,631908.0,714010.3125,285749.46875,524385.625,285942.5625,0.008544921875,0.985107421875,-0.05419921875,-0.2136230319738388,-0.8239745497703552,-0.0610351525247097,40.0,391.0,1.0,WarmUp
284185.8125,268536.65625,714006.0625,631870.6875,714016.3125,285733.1875,524542.625,285857.8125,0.010009765625,0.983642578125,-0.052490234375,-0.1220703050494194,-0.7934569716453552,-0.0610351525247097,40.0,392.0,1.0,WarmUp
284313.03125,268890.25,714018.375,631951.4375,714028.5625,285981.28125,525051.5625,286481.25,0.009765625,0.98193359375,-0.05224609375,-0.1831054538488388,-0.9155272841453552,-0.0915527269244194,40.0,393.0,1.0,WarmUp
284341.125,269001.375,714018.5625,631925.9375,714028.5,286154.46875,525583.6875,287190.25,0.010009765625,0.984375,-0.05419921875,-0.2136230319738388,-0.9765624403953552,-0.0915527269244194,40.0,394.0,1.0,WarmUp
284233.5625,268715.90625,714004.875,631714.875,714015.0625,286014.09375,525775.375,287230.375,0.01171875,0.982177734375,-0.055419921875,-0.1220703050494194,-0.9460448622703552,-0.1220703050494194,40.0,395.0,1.0,WarmUp
284143.0,268434.1875,713996.8125,631501.625,714007.0,285754.375,525733.0,286769.21875,0.013427734375,0.984375,-0.0546875,-0.0915527269244194,-0.9460448622703552,0.0,40.0,396.0,1.0,WarmUp
284190.65625,268541.28125,714001.375,631465.75,714011.6875,285732.03125,525885.6875,286673.21875,0.015380859375,0.985595703125,-0.05224609375,-0.0915527269244194,-0.8544921278953552,0.03051757626235485,40.0,397.0,1.0,WarmUp
284314.90625,268891.84375,714012.0,631528.25,714022.5,285971.90625,526381.0,287270.09375,0.017333984375,0.982421875,-0.05126953125,-0.0610351525247097,-0.7934569716453552,0.2441406100988388,40.0,398.0,1.0,WarmUp
284340.03125,269004.5,714012.1875,631505.9375,714022.375,286146.96875,526908.0625,287966.46875,0.017333984375,0.983642578125,-0.052734375,-0.0915527269244194,-0.7324218153953552,0.2746581733226776,40.0,399.0,1.0,WarmUp
284240.1875,268731.8125,714001.625,631317.5625,714011.9375,286016.34375,527111.75,288031.125,0.0166015625,0.9833984375,-0.054443359375,-0.1831054538488388,-0.6713866591453552,0.3051757514476776,40.0,400.0,1.0,WarmUp
284145.84375,268444.28125,713990.8125,631101.1875,714001.5625,285756.15625,527070.0,287573.90625,0.015380859375,0.980712890625,-0.053955078125,-0.0610351525247097,-0.6713866591453552,0.3662109076976776,40.0,401.0,1.0,WarmUp
284181.4375,268537.09375,713995.125,631053.625,714005.3125,285727.71875,527217.625,287469.46875,0.013671875,0.97900390625,-0.054443359375,0.03051757626235485,-0.5798339247703552,0.5493163466453552,40.0,402.0,1.0,WarmUp
284294.1875,268878.0,714005.875,631127.125,714015.875,285967.59375,527715.125,288073.84375,0.0126953125,0.980712890625,-0.053955078125,0.0915527269244194,-0.6408690810203552,0.4882812201976776,40.0,403.0,1.0,WarmUp
284317.78125,268993.15625,714007.125,631106.125,714017.75,286146.59375,528250.0625,288782.84375,0.011962890625,0.97998046875,-0.056640625,0.0915527269244194,-0.4272460639476776,0.4577636420726776,40.0,404.0,1.0,WarmUp
284213.09375,268717.15625,713991.4375,630904.0625,714002.0,286015.78125,528449.625,288834.875,0.008544921875,0.978515625,-0.0546875,0.2746581733226776,-0.3967284858226776,0.4272460639476776,40.0,405.0,1.0,WarmUp
284114.46875,268422.90625,713981.0,630685.8125,713991.75,285753.3125,528403.875,288370.96875,0.00634765625,0.9794921875,-0.053955078125,0.3662109076976776,-0.3967284858226776,0.3051757514476776,40.0,406.0,1.0,WarmUp
284158.1875,268518.40625,713988.125,630649.375,713998.625,285728.4375,528554.5,288265.375,0.008056640625,0.982666015625,-0.052734375,0.3356933295726776,-0.4882812201976776,0.1525878757238388,40.0,407.0,1.0,WarmUp
284288.71875,268875.75,713999.5,630734.9375,714010.0625,285975.03125,529056.9375,288871.1875,0.009765625,0.984375,-0.055419921875,0.3051757514476776,-0.5798339247703552,0.1525878757238388,40.0,408.0,1.0,WarmUp
284329.65625,269008.53125,714000.25,630726.5,714010.875,286157.59375,529591.0,289574.375,0.01171875,0.985107421875,-0.056396484375,0.2746581733226776,-0.5493163466453552,0.0915527269244194,40.0,409.0,1.0,WarmUp
284223.375,268729.125,713988.3125,630529.5,713998.5,286027.25,529795.1875,289628.03125,0.01171875,0.98876953125,-0.05322265625,0.3051757514476776,-0.6408690810203552,0.03051757626235485,40.0,410.0,1.0,WarmUp
284125.65625,268429.96875,713978.75,630311.0625,713988.875,285759.46875,529755.0625,289165.15625,0.012939453125,0.989990234375,-0.05224609375,0.2746581733226776,-0.7019042372703552,0.0,40.0,411.0,1.0,WarmUp
284168.75,268521.875,713984.375,630261.4375,713994.5625,285722.1875,529894.625,289039.625,0.01611328125,0.9892578125,-0.052734375,0.1525878757238388,-0.6408690810203552,0.0915527269244194,40.0,412.0,1.0,WarmUp
284288.53125,268863.59375,713994.9375,630320.1875,714004.6875,285954.375,530373.3125,289598.0625,0.013916015625,0.988525390625,-0.051025390625,0.1525878757238388,-0.5493163466453552,0.03051757626235485,40.0,413.0,1.0,WarmUp
284324.125,268991.53125,713996.0,630323.0,714005.875,286142.9375,530914.375,290309.21875,0.011962890625,0.984619140625,-0.052490234375,0.2136230319738388,-0.5798339247703552,-0.03051757626235485,40.0,414.0,1.0,WarmUp
284225.25,268721.625,713985.3125,630135.875,713994.9375,286020.09375,531131.3125,290387.09375,0.0107421875,0.98486328125,-0.05126953125,0.1525878757238388,-0.6103515028953552,-0.0915527269244194,40.0,415.0,1.0,WarmUp
284121.4375,268418.0,713972.625,629908.875,713982.3125,285750.71875,531085.6875,289916.34375,0.0087890625,0.985595703125,-0.0537109375,0.1831054538488388,-0.5798339247703552,-0.1831054538488388,40.0,416.0,1.0,WarmUp
284161.40625,268505.53125,713976.8125,629862.625,713986.8125,285720.03125,531227.25,289793.15625,0.009033203125,0.98681640625,-0.051513671875,0.2441406100988388,-0.6408690810203552,-0.2441406100988388,40.0,417.0,1.0,WarmUp
284283.4375,268856.1875,713989.25,629940.375,713999.0625,285963.84375,531724.4375,290386.53125,0.009033203125,0.9873046875,-0.054443359375,0.1220703050494194,-0.6713866591453552,-0.3051757514476776,40.0,418.0,1.0,WarmUp
284317.59375,268986.34375,713990.6875,629925.1875,714000.5625,286147.84375,532259.875,291090.90625,0.00927734375,0.98681640625,-0.053955078125,0.0915527269244194,-0.8544921278953552,-0.3051757514476776,40.0,419.0,1.0,WarmUp
284222.90625,268719.375,713978.25,629732.625,713988.0625,286026.625,532468.125,291147.21875,0.010009765625,0.986572265625,-0.052490234375,0.0610351525247097,-0.7934569716453552,-0.2441406100988388,40.0,420.0,1.0,WarmUp
284131.625,268433.46875,713969.375,629523.4375,713979.125,285773.0625,532431.375,290681.84375,0.0107421875,0.986083984375,-0.052490234375,0.03051757626235485,-0.8544921278953552,-0.2136230319738388,40.0,421.0,1.0,WarmUp
284173.75,268525.375,713973.375,629479.5,713983.0,285735.15625,532567.0,290547.125,0.009521484375,0.985107421875,-0.0546875,0.0,-1.0070799589157104,-0.3051757514476776,40.0,422.0,1.0,WarmUp
284300.25,268877.46875,713983.5,629560.9375,713993.5,285974.75,533058.625,291131.84375,0.009033203125,0.986083984375,-0.05224609375,-0.1220703050494194,-1.0070799589157104,-0.1831054538488388,40.0,423.0,1.0,WarmUp
284331.0,269007.375,713984.375,629549.0625,713994.5625,286159.65625,533594.25,291837.25,0.0087890625,0.9853515625,-0.05322265625,-0.1525878757238388,-1.0375975370407104,-0.2136230319738388,40.0,424.0,1.0,WarmUp
284223.46875,268731.09375,713970.0,629349.0625,713979.5625,286029.75,533797.6875,291889.46875,0.010498046875,0.984375,-0.052001953125,-0.0610351525247097,-1.0681151151657104,-0.1831054538488388,40.0,425.0,1.0,WarmUp
284125.09375,268430.96875,713956.9375,629129.9375,713966.9375,285762.78125,533750.9375,291412.5,0.010986328125,0.984130859375,-0.05078125,-0.1831054538488388,-1.0375975370407104,-0.0610351525247097,40.0,426.0,1.0,WarmUp
284169.625,268521.34375,713963.5625,629087.0,713973.375,285729.6875,533890.0625,291278.28125,0.013427734375,0.982666015625,-0.051025390625,-0.2441406100988388,-1.1596678495407104,0.03051757626235485,40.0,427.0,1.0,WarmUp
284295.34375,268875.3125,713975.625,629164.875,713985.1875,285970.375,534386.4375,291862.375,0.01513671875,0.98486328125,-0.051025390625,-0.1220703050494194,-1.0986326932907104,0.2441406100988388,40.0,428.0,1.0,WarmUp
284329.75,269004.0625,713976.5625,629149.6875,713986.4375,286155.625,534927.875,292567.90625,0.0146484375,0.984375,-0.048583984375,-0.2136230319738388,-1.0986326932907104,0.2441406100988388,40.0,429.0,1.0,WarmUp
284226.84375,268730.84375,713965.1875,628947.0,713975.625,286027.5,535139.0625,292624.03125,0.0146484375,0.98681640625,-0.046630859375,-0.3051757514476776,-1.1596678495407104,0.3051757514476776,40.0,430.0,1.0,WarmUp
284126.4375,268431.78125,713955.0625,628723.75,713965.0625,285763.125,535097.0625,292150.53125,0.01416015625,0.98583984375,-0.047607421875,-0.3051757514476776,-1.0375975370407104,0.3967284858226776,40.0,431.0,1.0,WarmUp
284162.75,268512.3125,713960.25,628674.5,713970.125,285728.09375,535235.4375,292010.96875,0.010986328125,0.985595703125,-0.04833984375,-0.3662109076976776,-1.1291502714157104,0.4577636420726776,40.0,432.0,1.0,WarmUp
284291.3125,268869.3125,713972.9375,628756.9375,713982.6875,285975.46875,535733.5,292593.1875,0.01220703125,0.98486328125,-0.048095703125,-0.4272460639476776,-1.0986326932907104,0.5798339247703552,40.0,433.0,1.0,WarmUp
284321.0,268997.09375,713972.625,628740.375,713982.3125,286159.84375,536268.375,293290.5625,0.01318359375,0.984375,-0.048583984375,-0.3967284858226776,-1.0070799589157104,0.4882812201976776,40.0,434.0,1.0,WarmUp
284218.625,268731.8125,713963.125,628542.1875,713972.9375,286037.78125,536484.6875,293353.4375,0.0146484375,0.987060546875,-0.0478515625,-0.4577636420726776,-1.0681151151657104,0.3967284858226776,40.0,435.0,1.0,WarmUp
284118.75,268431.78125,713952.6875,628317.75,713962.6875,285774.9375,536448.875,292880.8125,0.01318359375,0.987548828125,-0.048828125,-0.5187987685203552,-1.0375975370407104,0.3051757514476776,40.0,436.0,1.0,WarmUp
284156.5,268512.40625,713954.1875,628264.125,713964.1875,285733.8125,536581.4375,292727.9375,0.01123046875,0.986083984375,-0.04638671875,-0.5493163466453552,-0.9765624403953552,0.3356933295726776,40.0,437.0,1.0,WarmUp
284280.59375,268867.34375,713965.4375,628344.3125,713975.75,285977.4375,537073.1875,293297.625,0.01220703125,0.984619140625,-0.046142578125,-0.5493163466453552,-1.0375975370407104,0.3356933295726776,40.0,438.0,1.0,WarmUp
284314.375,269000.65625,713968.5,628334.5,713978.5,286169.75,537617.625,294002.15625,0.014404296875,0.984130859375,-0.04931640625,-0.5187987685203552,-0.9460448622703552,0.1220703050494194,40.0,439.0,1.0,WarmUp
284210.125,268729.125,713957.5625,628136.8125,713967.4375,286046.46875,537827.0625,294058.03125,0.014892578125,0.983154296875,-0.0498046875,-0.5798339247703552,-0.9765624403953552,0.1220703050494194,40.0,440.0,1.0,WarmUp
284111.6875,268428.0,713949.0,627922.0625,713958.375,285784.78125,537788.0625,293582.125,0.015625,0.982421875,-0.049560546875,-0.6103515028953552,-0.9155272841453552,0.03051757626235485,40.0,441.0,1.0,WarmUp
284149.96875,268508.21875,713953.8125,627876.5625,713963.3125,285744.53125,537922.1875,293428.09375,0.013671875,0.982177734375,-0.048583984375,-0.5798339247703552,-0.8544921278953552,0.0,40.0,442.0,1.0,WarmUp
284274.59375,268857.78125,713964.3125,627953.625,713973.6875,285978.78125,538410.8125,293987.0625,0.0146484375,0.9814453125,-0.05029296875,-0.6103515028953552,-0.8239745497703552,0.0,40.0,443.0,1.0,WarmUp
284314.28125,268997.8125,713967.125,627946.125,713976.5625,286169.3125,538953.25,294689.25,0.016357421875,0.981201171875,-0.050537109375,-0.5798339247703552,-0.7324218153953552,0.0,40.0,444.0,1.0,WarmUp
284207.53125,268727.53125,713951.5625,627742.8125,713960.875,286040.03125,539158.8125,294742.8125,0.01806640625,0.979248046875,-0.05078125,-0.3967284858226776,-0.7629393935203552,0.0,40.0,445.0,1.0,WarmUp
284102.40625,268417.90625,713940.3125,627519.25,713949.4375,285767.59375,539109.875,294256.78125,0.017333984375,0.97998046875,-0.048828125,-0.3662109076976776,-0.6408690810203552,0.03051757626235485,40.0,446.0,1.0,WarmUp
284147.5625,268498.8125,713945.3125,627475.25,713954.375,285724.875,539240.5,294091.5625,0.017333984375,0.97998046875,-0.0478515625,-0.3967284858226776,-0.6713866591453552,-0.0915527269244194,40.0,447.0,1.0,WarmUp
284268.875,268843.84375,713956.0625,627543.375,713965.5625,285952.59375,539714.75,294622.90625,0.017333984375,0.981201171875,-0.0498046875,-0.3967284858226776,-0.6103515028953552,0.0610351525247097,40.0,448.0,1.0,WarmUp
284306.6875,268988.40625,713958.75,627545.9375,713968.125,286144.90625,540257.625,295322.78125,0.01708984375,0.97998046875,-0.05029296875,-0.2136230319738388,-0.4882812201976776,-0.03051757626235485,40.0,449.0,1.0,WarmUp
284207.90625,268731.28125,713946.0625,627365.125,713955.1875,286028.84375,540482.125,295405.9375,0.016357421875,0.981201171875,-0.050048828125,-0.1525878757238388,-0.5493163466453552,-0.0915527269244194,40.0,450.0,1.0,WarmUp
284109.46875,268430.6875,713936.1875,627147.9375,713945.3125,285763.40625,540441.3125,294929.75,0.015869140625,0.979248046875,-0.049560546875,-0.0915527269244194,-0.5493163466453552,0.0,40.0,451.0,1.0,WarmUp
284150.0625,268511.78125,713941.0625,627106.1875,713950.3125,285724.25,540573.9375,294765.6875,0.015869140625,0.982177734375,-0.04931640625,-0.0610351525247097,-0.5187987685203552,-0.1525878757238388,40.0,452.0,1.0,WarmUp
284275.40625,268865.03125,713955.0,627190.25,713964.1875,285964.9375,541060.5625,295322.25,0.01513671875,0.984619140625,-0.047119140625,0.0610351525247097,-0.3967284858226776,-0.1831054538488388,40.0,453.0,1.0,WarmUp
284314.5625,269008.25,713957.125,627187.625,713966.6875,286160.90625,541602.0,296026.96875,0.01318359375,0.984619140625,-0.047607421875,0.1831054538488388,-0.5798339247703552,-0.0610351525247097,40.0,454.0,1.0,WarmUp
284215.59375,268751.65625,713945.125,627001.0,713954.875,286050.125,541820.4375,296092.5,0.011962890625,0.98486328125,-0.046875,0.2441406100988388,-0.5187987685203552,-0.1220703050494194,40.0,455.0,1.0,WarmUp
284104.375,268440.53125,713933.1875,626776.125,713942.75,285782.8125,541772.0,295603.0,0.01171875,0.98388671875,-0.048828125,0.2746581733226776,-0.4577636420726776,-0.1525878757238388,40.0,456.0,1.0,WarmUp
284136.09375,268509.46875,713936.125,626725.875,713945.25,285735.6875,541896.0625,295429.09375,0.01220703125,0.985107421875,-0.04833984375,0.1525878757238388,-0.5187987685203552,-0.2136230319738388,40.0,457.0,1.0,WarmUp
284263.6875,268859.75,713945.25,626810.625,713953.9375,285972.78125,542382.0625,295980.125,0.011962890625,0.986328125,-0.046875,0.2136230319738388,-0.5798339247703552,-0.2746581733226776,40.0,458.0,1.0,WarmUp
284306.0625,269004.0625,713947.0,626813.3125,713956.0625,286166.71875,542930.9375,296685.28125,0.01123046875,0.98583984375,-0.047119140625,0.2136230319738388,-0.6103515028953552,-0.2441406100988388,40.0,459.0,1.0,WarmUp
284216.84375,268750.875,713938.0625,626635.5,713947.375,286056.65625,543157.9375,296757.5,0.012451171875,0.984130859375,-0.046142578125,0.2441406100988388,-0.7629393935203552,-0.1525878757238388,40.0,460.0,1.0,WarmUp
284118.40625,268444.5625,713927.4375,626418.5,713937.0,285788.34375,543114.1875,296271.21875,0.012451171875,0.9853515625,-0.045166015625,0.3051757514476776,-0.6713866591453552,-0.1220703050494194,40.0,461.0,1.0,WarmUp
284148.96875,268510.28125,713930.0625,626367.5,713939.0625,285734.53125,543233.0625,296088.375,0.0126953125,0.984375,-0.047607421875,0.3356933295726776,-0.8239745497703552,-0.1525878757238388,40.0,462.0,1.0,WarmUp
284268.0625,268856.09375,713941.3125,626448.6875,713950.3125,285965.375,543713.25,296629.65625,0.01123046875,0.985107421875,-0.046142578125,0.1831054538488388,-0.7934569716453552,-0.1831054538488388,40.0,463.0,1.0,WarmUp
284305.8125,268997.28125,713944.1875,626447.0,713953.4375,286159.21875,544257.6875,297329.28125,0.00927734375,0.98583984375,-0.045166015625,0.2746581733226776,-0.9155272841453552,-0.1525878757238388,40.0,464.0,1.0,WarmUp
284197.96875,268729.75,713934.0625,626258.375,713943.0,286041.46875,544478.125,297397.125,0.009521484375,0.988037109375,-0.046630859375,0.2136230319738388,-1.0375975370407104,-0.1220703050494194,40.0,465.0,1.0,WarmUp
284091.5,268423.8125,713922.875,626039.25,713932.125,285776.0,544438.125,296910.84375,0.009521484375,0.988525390625,-0.0478515625,0.3051757514476776,-0.9765624403953552,-0.1220703050494194,40.0,466.0,1.0,WarmUp
284126.34375,268490.96875,713924.75,625991.8125,713933.875,285726.75,544558.625,296723.53125,0.00927734375,0.988037109375,-0.047119140625,0.2746581733226776,-1.0375975370407104,-0.1831054538488388,40.0,467.0,1.0,WarmUp
284245.625,268837.9375,713935.5625,626068.625,713944.8125,285959.8125,545033.8125,297251.46875,0.010498046875,0.98779296875,-0.043701171875,0.2746581733226776,-1.1596678495407104,-0.2136230319738388,40.0,468.0,1.0,WarmUp
284283.1875,268986.4375,713939.25,626071.875,713948.375,286158.75,545582.3125,297951.09375,0.009521484375,0.9853515625,-0.048095703125,0.2441406100988388,-1.2207030057907104,-0.1831054538488388,40.0,469.0,1.0,WarmUp
284184.65625,268730.03125,713929.3125,625891.6875,713938.0625,286051.28125,545814.3125,298032.1875,0.009521484375,0.986572265625,-0.046142578125,0.1831054538488388,-1.2817381620407104,-0.1220703050494194,40.0,470.0,1.0,WarmUp
284081.375,268421.40625,713918.0625,625670.6875,713926.9375,285783.96875,545772.3125,297542.6875,0.01318359375,0.982421875,-0.045654296875,0.1220703050494194,-1.3122557401657104,0.03051757626235485,40.0,471.0,1.0,WarmUp
284123.3125,268497.75,713922.625,625631.375,713931.5,285741.125,545897.75,297358.25,0.013916015625,0.984130859375,-0.049072265625,0.1525878757238388,-1.4343260526657104,0.03051757626235485,40.0,472.0,1.0,WarmUp
284250.53125,268846.875,713935.3125,625719.5,713944.625,285978.59375,546380.3125,297893.96875,0.015625,0.984375,-0.047119140625,0.1831054538488388,-1.4038084745407104,0.0915527269244194,40.0,473.0,1.0,WarmUp
284288.53125,268993.96875,713937.8125,625718.5,713946.9375,286173.5,546927.1875,298591.96875,0.017578125,0.984619140625,-0.04638671875,0.2746581733226776,-1.4343260526657104,0.2441406100988388,40.0,474.0,1.0,WarmUp
284189.40625,268737.1875,713926.1875,625534.875,713934.9375,286060.6875,547152.75,298662.875,0.016845703125,0.985107421875,-0.044189453125,0.3662109076976776,-1.3732908964157104,0.2746581733226776,40.0,475.0,1.0,WarmUp
284084.96875,268424.71875,713915.0,625322.875,713924.125,285792.28125,547108.75,298170.40625,0.016845703125,0.985107421875,-0.047119140625,0.3051757514476776,-1.4038084745407104,0.3967284858226776,40.0,476.0,1.0,WarmUp
284120.09375,268494.8125,713919.5,625283.75,713928.8125,285743.09375,547229.5,297978.8125,0.01708984375,0.984619140625,-0.0458984375,0.3662109076976776,-1.3732908964157104,0.4882812201976776,40.0,477.0,1.0,WarmUp
284239.0,268838.40625,713932.25,625366.625,713941.5,285974.84375,547705.3125,298506.5625,0.016845703125,0.982666015625,-0.046630859375,0.5187987685203552,-1.4038084745407104,0.6103515028953552,40.0,478.0,1.0,WarmUp
284275.125,268980.5625,713933.0,625371.5,713941.9375,286165.28125,548245.9375,299198.5,0.014404296875,0.981689453125,-0.047607421875,0.3967284858226776,-1.3732908964157104,0.5493163466453552,40.0,479.0,1.0,WarmUp
284182.875,268730.65625,713921.8125,625194.3125,713930.5625,286054.6875,548477.0625,299273.96875,0.011474609375,0.98193359375,-0.04638671875,0.3356933295726776,-1.3122557401657104,0.5493163466453552,40.0,480.0,1.0,WarmUp
284088.71875,268426.84375,713913.25,624983.3125,713922.0,285792.375,548442.25,298791.0625,0.01025390625,0.981689453125,-0.045166015625,0.4272460639476776,-1.3427733182907104,0.3662109076976776,40.0,481.0,1.0,WarmUp
284127.25,268493.09375,713916.875,624937.625,713925.75,285736.59375,548555.9375,298585.15625,0.009521484375,0.983642578125,-0.04345703125,0.4577636420726776,-1.3122557401657104,0.2441406100988388,40.0,482.0,1.0,WarmUp
284246.96875,268836.78125,713926.375,625009.25,713935.3125,285958.75,549014.0625,299074.5,0.007568359375,0.983642578125,-0.04541015625,0.6408690810203552,-1.4343260526657104,0.0610351525247097,40.0,483.0,1.0,WarmUp
284287.375,268988.9375,713927.875,625023.625,713937.0,286155.0,549558.1875,299763.1875,0.010986328125,0.983642578125,-0.04931640625,0.6408690810203552,-1.4343260526657104,-0.03051757626235485,40.0,484.0,1.0,WarmUp
284194.21875,268739.59375,713918.5,624860.5625,713927.375,286050.5625,549797.3125,299856.1875,0.014404296875,0.985107421875,-0.044189453125,0.7019042372703552,-1.4953612089157104,-0.0610351525247097,40.0,485.0,1.0,WarmUp
284088.28125,268427.75,713907.0625,624643.5,713915.5625,285782.8125,549756.0,299365.0625,0.015380859375,0.984619140625,-0.04638671875,0.6408690810203552,-1.6479490995407104,-0.1525878757238388,40.0,486.0,1.0,WarmUp
284128.5,268501.40625,713912.625,624607.1875,713921.25,285740.96875,549886.5625,299176.40625,0.016357421875,0.986083984375,-0.044677734375,0.5798339247703552,-1.6784666776657104,-0.2136230319738388,40.0,487.0,1.0,WarmUp
284257.96875,268854.46875,713926.9375,624702.3125,713935.5625,285981.03125,550372.5625,299704.625,0.017333984375,0.9853515625,-0.048095703125,0.5798339247703552,-1.5563963651657104,-0.2136230319738388,40.0,488.0,1.0,WarmUp
284294.25,269000.5625,713927.625,624703.375,713936.5,286176.625,550911.5,300390.75,0.018310546875,0.98486328125,-0.046142578125,0.5493163466453552,-1.4953612089157104,-0.1525878757238388,40.0,489.0,1.0,WarmUp
284188.75,268743.1875,713915.0,624517.8125,713923.8125,286065.40625,551134.3125,300457.0,0.016357421875,0.98388671875,-0.045654296875,0.5187987685203552,-1.3732908964157104,-0.1220703050494194,40.0,490.0,1.0,WarmUp
284093.90625,268445.09375,713908.125,624315.4375,713917.0625,285813.03125,551106.8125,299974.8125,0.016357421875,0.986083984375,-0.042236328125,0.5798339247703552,-1.3732908964157104,-0.2746581733226776,40.0,491.0,1.0,WarmUp
284122.34375,268501.59375,713911.8125,624270.6875,713920.8125,285759.46875,551219.8125,299764.0,0.01708984375,0.984619140625,-0.0419921875,0.6713866591453552,-1.4343260526657104,-0.2441406100988388,40.0,492.0,1.0,WarmUp
284228.375,268834.53125,713921.5625,624344.125,713930.0625,285983.96875,551684.4375,300266.71875,0.017822265625,0.9873046875,-0.041259765625,0.7019042372703552,-1.5258787870407104,-0.1831054538488388,40.0,493.0,1.0,WarmUp
284270.65625,268992.25,713925.8125,624354.0,713934.4375,286188.71875,552238.4375,300967.40625,0.017333984375,0.989013671875,-0.04248046875,0.6408690810203552,-1.4953612089157104,-0.1831054538488388,40.0,494.0,1.0,WarmUp
284169.53125,268737.0,713912.1875,624170.0625,713921.1875,286074.96875,552463.6875,301037.875,0.018310546875,0.987060546875,-0.040771484375,0.6713866591453552,-1.5258787870407104,-0.1220703050494194,40.0,495.0,1.0,WarmUp
284066.375,268426.03125,713902.5625,623960.875,713911.4375,285815.15625,552431.1875,300551.21875,0.017333984375,0.9873046875,-0.04248046875,0.8239745497703552,-1.4953612089157104,-0.03051757626235485,40.0,496.0,1.0,WarmUp
284098.5625,268486.3125,713907.75,623918.0625,713916.1875,285760.90625,552547.3125,300338.09375,0.018798828125,0.9853515625,-0.043212890625,0.7324218153953552,-1.4343260526657104,-0.03051757626235485,40.0,497.0,1.0,WarmUp
284218.1875,268829.625,713917.625,624004.5,713926.375,285985.3125,553016.875,300842.875,0.017578125,0.984619140625,-0.040283203125,0.6713866591453552,-1.4648436307907104,-0.0915527269244194,40.0,498.0,1.0,WarmUp
284258.5,268976.78125,713917.25,624007.875,713926.0,286174.40625,553552.6875,301524.0625,0.01513671875,0.98291015625,-0.04150390625,0.7324218153953552,-1.4648436307907104,-0.0610351525247097,40.0,499.0,1.0,WarmUp
284171.875,268731.71875,713906.625,623839.5625,713915.0,286066.5,553784.0,301599.6875,0.017333984375,0.983642578125,-0.04296875,0.7629393935203552,-1.4953612089157104,-0.1220703050494194,40.0,500.0,1.0,WarmUp
284077.1875,268423.71875,713897.5625,623634.625,713905.625,285802.84375,553747.875,301108.59375,0.015380859375,0.983154296875,-0.04345703125,0.7934569716453552,-1.5563963651657104,-0.0610351525247097,40.0,501.0,1.0,WarmUp
284114.28125,268484.53125,713902.125,623594.375,713910.625,285745.0625,553862.75,300889.09375,0.01611328125,0.9833984375,-0.04541015625,0.7629393935203552,-1.6784666776657104,-0.03051757626235485,40.0,502.0,1.0,WarmUp
284236.78125,268829.0,713913.25,623677.0,713921.75,285966.34375,554329.25,301376.71875,0.01611328125,0.981689453125,-0.045654296875,0.8544921278953552,-1.5869139432907104,-0.1525878757238388,40.0,503.0,1.0,WarmUp
284284.59375,268988.40625,713916.1875,623692.4375,713925.125,286164.21875,554873.875,302059.15625,0.01513671875,0.980712890625,-0.044921875,0.8239745497703552,-1.5563963651657104,-0.1220703050494194,40.0,504.0,1.0,WarmUp
284190.90625,268741.375,713903.3125,623523.875,713912.0,286061.125,555110.0,302143.125,0.013427734375,0.98193359375,-0.041015625,0.9155272841453552,-1.5563963651657104,-0.2441406100988388,40.0,505.0,1.0,WarmUp
284088.4375,268431.15625,713892.75,623313.75,713901.25,285798.28125,555074.0625,301650.5,0.0126953125,0.98291015625,-0.041259765625,0.9155272841453552,-1.6784666776657104,-0.2746581733226776,40.0,506.0,1.0,WarmUp
284119.21875,268487.28125,713894.875,623269.0625,713903.5,285741.21875,555184.25,301424.5625,0.012939453125,0.979736328125,-0.03955078125,1.0070799589157104,-1.7395018339157104,-0.3051757514476776,40.0,507.0,1.0,WarmUp
284243.5625,268841.25,713907.6875,623358.8125,713916.0625,285978.25,555660.1875,301927.03125,0.01220703125,0.981201171875,-0.0400390625,0.9765624403953552,-1.7395018339157104,-0.4882812201976776,40.0,508.0,1.0,WarmUp
284290.34375,269007.09375,713912.0625,623373.0,713920.625,286189.0625,556211.0,302618.125,0.012939453125,0.982666015625,-0.03759765625,1.1291502714157104,-1.7395018339157104,-0.4882812201976776,40.0,509.0,1.0,WarmUp
284186.625,268753.71875,713898.9375,623193.5,713907.25,286084.71875,556437.5625,302688.40625,0.012451171875,0.981201171875,-0.034423828125,1.1291502714157104,-1.7700194120407104,-0.4882812201976776,40.0,510.0,1.0,WarmUp
284087.375,268441.6875,713889.625,622985.875,713897.9375,285822.3125,556399.125,302189.25,0.011474609375,0.98291015625,-0.03662109375,1.1291502714157104,-1.8310545682907104,-0.5187987685203552,40.0,511.0,1.0,WarmUp
284116.4375,268491.75,713894.125,622942.8125,713902.5,285762.40625,556504.3125,301955.90625,0.01220703125,0.982421875,-0.036865234375,1.2207030057907104,-1.9531248807907104,-0.6103515028953552,40.0,512.0,1.0,WarmUp
284233.125,268831.0625,713903.9375,623028.875,713912.625,285988.15625,556971.0,302445.59375,0.010009765625,0.981201171875,-0.03857421875,1.2512205839157104,-2.044677495956421,-0.5798339247703552,40.0,513.0,1.0,WarmUp
284284.96875,268995.375,713908.75,623049.125,713917.1875,286193.1875,557522.625,303133.3125,0.01171875,0.982421875,-0.039794921875,1.3427733182907104,-2.136230230331421,-0.5187987685203552,40.0,514.0,1.0,WarmUp
284184.84375,268745.9375,713898.5,622876.0,713907.0625,286084.0,557754.3125,303205.09375,0.010498046875,0.981689453125,-0.039306640625,1.4343260526657104,-2.258300542831421,-0.4882812201976776,40.0,515.0,1.0,WarmUp
284076.75,268431.40625,713885.3125,622663.5,713894.125,285813.90625,557712.0625,302702.53125,0.011962890625,0.980224609375,-0.039794921875,1.4953612089157104,-2.410888433456421,-0.4577636420726776,40.0,516.0,1.0,WarmUp
284106.15625,268483.09375,713889.25,622615.625,713897.5,285750.625,557817.875,302462.9375,0.010498046875,0.982177734375,-0.039794921875,1.5258787870407104,-2.319335699081421,-0.3967284858226776,40.0,517.0,1.0,WarmUp
284229.34375,268824.71875,713899.4375,622690.5,713907.5,285968.5,558273.125,302919.625,0.00830078125,0.983642578125,-0.039306640625,1.4343260526657104,-2.471923589706421,-0.3967284858226776,40.0,518.0,1.0,WarmUp
284268.875,268983.6875,713899.5625,622711.9375,713907.75,286167.96875,558815.375,303594.0,0.008544921875,0.984619140625,-0.036865234375,1.4343260526657104,-2.624511480331421,-0.5187987685203552,40.0,519.0,1.0,WarmUp
284168.28125,268735.65625,713888.75,622551.5625,713897.125,286071.0625,559063.9375,303700.84375,0.006103515625,0.985595703125,-0.03515625,1.5258787870407104,-2.807616949081421,-0.4577636420726776,40.0,520.0,1.0,WarmUp
284066.90625,268423.53125,713883.25,622341.375,713891.625,285809.90625,559035.3125,303213.6875,0.0068359375,0.98388671875,-0.0341796875,1.5258787870407104,-3.021239995956421,-0.4577636420726776,40.0,521.0,1.0,WarmUp
284093.1875,268469.6875,713886.9375,622293.0625,713894.75,285745.96875,559143.375,302980.25,0.007080078125,0.983154296875,-0.03662109375,1.5869139432907104,-3.234863042831421,-0.5493163466453552,40.0,522.0,1.0,WarmUp
284212.5625,268812.71875,713897.6875,622381.3125,713905.625,285970.125,559611.8125,303466.78125,0.0087890625,0.983642578125,-0.034423828125,1.5563963651657104,-3.356933355331421,-0.6103515028953552,40.0,523.0,1.0,WarmUp
284254.03125,268972.78125,713900.5625,622393.375,713909.125,286169.125,560159.625,304150.46875,0.009521484375,0.98388671875,-0.0380859375,1.5563963651657104,-3.448486089706421,-0.5798339247703552,40.0,524.0,1.0,WarmUp
284162.46875,268734.6875,713892.5,622228.0,713900.6875,286073.1875,560404.375,304236.9375,0.010986328125,0.984619140625,-0.035400390625,1.4648436307907104,-3.540038824081421,-0.6408690810203552,40.0,525.0,1.0,WarmUp
284062.15625,268422.90625,713883.5625,622020.75,713891.625,285812.125,560371.3125,303741.53125,0.01220703125,0.984375,-0.035888671875,1.4953612089157104,-3.631591558456421,-0.6408690810203552,40.0,526.0,1.0,WarmUp
284092.375,268474.15625,713886.25,621976.9375,713894.25,285747.21875,560472.4375,303496.375,0.014404296875,0.9853515625,-0.035888671875,1.5563963651657104,-3.692626714706421,-0.5187987685203552,40.0,527.0,1.0,WarmUp
284212.90625,268815.40625,713897.6875,622063.375,713905.875,285970.5625,560929.8125,303969.25,0.01416015625,0.985595703125,-0.038818359375,1.6479490995407104,-3.753661870956421,-0.4272460639476776,40.0,528.0,1.0,WarmUp
284261.09375,268980.625,713898.375,622079.125,713906.5,286174.125,561478.375,304652.15625,0.013427734375,0.98388671875,-0.03759765625,1.6174315214157104,-3.723144292831421,-0.4272460639476776,40.0,529.0,1.0,WarmUp
284165.96875,268734.40625,713884.875,621910.125,713893.0,286071.59375,561714.125,304732.96875,0.014892578125,0.985107421875,-0.0341796875,1.5869139432907104,-3.784179449081421,-0.3967284858226776,40.0,530.0,1.0,WarmUp
284068.59375,268424.875,713875.75,621712.4375,713883.8125,285808.28125,561679.5,304236.03125,0.0146484375,0.987060546875,-0.032470703125,1.5258787870407104,-3.753661870956421,-0.3662109076976776,40.0,531.0,1.0,WarmUp
284105.09375,268480.84375,713881.375,621684.125,713889.625,285753.21875,561793.3125,304001.8125,0.01513671875,0.98681640625,-0.033203125,1.4648436307907104,-3.875732183456421,-0.5493163466453552,40.0,532.0,1.0,WarmUp
284225.0625,268820.34375,713894.4375,621777.5625,713902.3125,285975.03125,562252.875,304477.1875,0.014892578125,0.987060546875,-0.033447265625,1.4038084745407104,-3.845214605331421,-0.4882812201976776,40.0,533.0,1.0,WarmUp
284278.09375,268991.625,713899.375,621798.125,713907.6875,286183.53125,562803.875,305160.15625,0.01513671875,0.98681640625,-0.033447265625,1.3732908964157104,-3.814697027206421,-0.4272460639476776,40.0,534.0,1.0,WarmUp
284189.21875,268756.40625,713886.875,621639.6875,713895.0,286091.25,563048.625,305252.6875,0.01611328125,0.9873046875,-0.031005859375,1.3427733182907104,-3.875732183456421,-0.4577636420726776,40.0,535.0,1.0,WarmUp
284080.59375,268432.03125,713876.6875,621429.5625,713884.5625,285820.34375,563005.875,304750.125,0.01513671875,0.988525390625,-0.0341796875,1.4648436307907104,-3.936767339706421,-0.3356933295726776,40.0,536.0,1.0,WarmUp
284109.8125,268478.15625,713879.6875,621391.6875,713887.8125,285751.96875,563106.75,304500.59375,0.015625,0.987060546875,-0.0400390625,1.3427733182907104,-3.875732183456421,-0.3051757514476776,40.0,537.0,1.0,WarmUp
284228.625,268822.21875,713889.0,621483.375,713897.4375,285971.375,563560.9375,304969.71875,0.013427734375,0.986083984375,-0.03759765625,1.2512205839157104,-3.967284917831421,-0.3051757514476776,40.0,538.0,1.0,WarmUp
284280.9375,268996.1875,713893.125,621510.5625,713900.6875,286182.28125,564114.9375,305666.65625,0.0146484375,0.985107421875,-0.038330078125,1.2817381620407104,-3.997802495956421,-0.3051757514476776,40.0,539.0,1.0,WarmUp
284189.125,268754.78125,713883.4375,621347.3125,713891.0,286087.9375,564361.8125,305766.25,0.012451171875,0.9873046875,-0.03759765625,1.1291502714157104,-3.906249761581421,-0.2136230319738388,40.0,540.0,1.0,WarmUp
284081.375,268437.125,713871.1875,621135.6875,713879.0,285815.0625,564320.9375,305265.46875,0.014892578125,0.987060546875,-0.03759765625,0.9765624403953552,-3.967284917831421,-0.3051757514476776,40.0,541.0,1.0,WarmUp
284107.84375,268481.84375,713873.8125,621094.6875,713881.9375,285751.25,564425.9375,305018.0,0.0146484375,0.98486328125,-0.03955078125,0.9155272841453552,-3.967284917831421,-0.3662109076976776,40.0,542.0,1.0,WarmUp
284228.1875,268823.8125,713889.0,621186.6875,713897.25,285980.21875,564893.0625,305494.4375,0.013671875,0.986328125,-0.0380859375,0.9155272841453552,-3.997802495956421,-0.3967284858226776,40.0,543.0,1.0,WarmUp
284273.875,268993.5,713891.75,621204.0625,713900.0,286186.90625,565442.6875,306176.8125,0.01513671875,0.988037109375,-0.041259765625,0.8850097060203552,-3.936767339706421,-0.3356933295726776,40.0,544.0,1.0,WarmUp
284181.34375,268757.46875,713881.3125,621042.4375,713889.625,286097.5,565689.4375,306267.5625,0.013427734375,0.98779296875,-0.03662109375,0.8544921278953552,-3.906249761581421,-0.4272460639476776,40.0,545.0,1.0,WarmUp
